

 Program UNIPLOT                         version 05.36.02
 _______________
 (c) Fugro Netherlands Marine, Nootdorp, The Netherlands


 ASCII representation of data plotted on a graph.

 This ASCII file presents data interpolated to values per fixed depth interval.
 The data are corrected for the depth-offset differences between the various 
 transducers in the penetrometer.

 The records at the start of penetration may include no values or anomalous
 values where a depth offset implies incomplete penetration of a particular
 sensor into the ground.

 The records at the end of penetration may include no values for data channels
 where the transducer did not reach this depth.

 The reference level for test values is (1) the ground surface for onshore tests and (2) the seafloor for nearshore and offshore tests.

 UNICAS data file          : CPT-2002.000                            
 Output using command file : PlotASCII.cmd

 ASCII file created at : date          :12-Jul-2022
                         time          :16:16:29
 Project number                        :20024805                                                                                            
 Date of testing                       :08-Jul-2022                                                                                         
 Location                              :Hong Kong Offshore Wind Farm Project                                                                
 Test name                             :CPT-2002
 Penetrometer                          :F7.5CKE2HAW2/B/3285
 Serial no                             :1701-3285

 Table description:
 Column ID                             :Parameter name
 ___________________________________________________________________________________
 Rec                                   :Record ID, Record ID [-]
 Depth                                 :Depth, Depth [m]
 Time                                  :Time, Time [s]
 Cone                                  :Cone Resistance, Cone Resistance [MPa]
 Friction                              :Sleeve Friction, Sleeve Friction [MPa]
 Pore 2                                :Porewater Pressure, Porewater Pressure at Shoulder [MPa]
 HydroPress                            :Hydrostatic Pressure, Hydrostatic Pressure [MPa]
 qt                                    :Total Cone Resistance, Total Cone Resistance [MPa]
 Fric_ratio                            :Friction Ratio, Friction Ratio [%]
 SigmaVert                             :Vertical stress, Vertical stress [kPa] as specified in ground model
 Qnet                                  :Net Cone Resistance, Net Cone Resistance [MPa], unit weight as specified in ground model
 Bq                                    :Porewater Pressure Ratio, Porewater Pressure Ratio [-], unit weight as specified in ground model


 Data table:
  Rec    Depth      Time       Cone   Friction     Pore 2 HydroPress         qt Fric_ratio  SigmaVert       Qnet         Bq
   No        m         s        MPa        MPa        MPa        MPa        MPa          %        kPa        MPa          -
    1    0.000   2104.81     0.0000                           0.0000     0.0000                0.0000     0.0000           
    2    0.020   2105.77     0.0001                0.0006     0.0002     0.0003                0.3200    -0.0001    -1.4771
    3    0.040   2106.76     0.0015                0.0005     0.0004     0.0019                0.6400     0.0012     0.4006
    4    0.060   2107.72     0.0037     0.0005     0.0001     0.0006     0.0037    15.5165     0.9600     0.0028    -0.1800
    5    0.080   2108.73     0.0048     0.0009    -0.0005     0.0008     0.0048    17.2803     1.2800     0.0036    -0.2319
    6    0.100   2111.04     0.0040     0.0009    -0.0009     0.0010     0.0036    24.5387     1.6000     0.0020    -0.9538
    7    0.120   2115.26     0.0044     0.0010    -0.0008     0.0012     0.0041    25.7666     1.9200     0.0022    -0.9309
    8    0.140   2117.86     0.0076     0.0012    -0.0043     0.0014     0.0055    19.7459     2.2400     0.0033    -1.9196
    9    0.160   2118.86     0.0075     0.0008    -0.0018     0.0016     0.0063    10.0505     2.5600     0.0038    -1.2129
   10    0.180   2119.86     0.0093     0.0008    -0.0003     0.0018     0.0091     8.7981     2.8800     0.0062    -0.3725
   11    0.200   2120.81     0.0110     0.0009     0.0004     0.0020     0.0112    10.1948     3.2000     0.0080    -0.2176
   12    0.220   2121.77     0.0092     0.0008    -0.0002     0.0022     0.0091     8.2084     3.5200     0.0056    -0.4244
   13    0.240   2122.77     0.0077     0.0009     0.0000     0.0024     0.0076    10.0430     3.8400     0.0038    -0.6515
   14    0.260   2123.74     0.0086     0.0007     0.0003     0.0026     0.0086     8.8694     4.1600     0.0045    -0.5763
   15    0.280   2124.76     0.0107     0.0009     0.0010     0.0028     0.0110    13.0438     4.4800     0.0065    -0.3608
   16    0.300   2125.73     0.0082     0.0010     0.0017     0.0030     0.0087    17.1168     4.8000     0.0039    -0.4746
   17    0.320   2126.70     0.0056     0.0009     0.0024     0.0032     0.0066    17.0501     5.1200     0.0014    -0.7376
   18    0.340   2127.67     0.0070     0.0012     0.0037     0.0034     0.0085    21.2854     5.4400     0.0030     0.1186
   19    0.360   2128.64     0.0084     0.0013     0.0035     0.0036     0.0100    19.7513     5.7600     0.0042     0.0150
   20    0.380   2138.36     0.0098     0.0009     0.0030     0.0038     0.0110    10.8589     6.0800     0.0049    -0.2290
   21    0.400   2169.90     0.0149     0.0010     0.0033     0.0040     0.0162    12.1424     6.4000     0.0098    -0.1431
   22    0.420   2201.44     0.0200     0.0013     0.0033     0.0042     0.0214    10.6033     6.7200     0.0147    -0.0572
   23    0.440   2204.28     0.0216     0.0010     0.0029     0.0044     0.0229     4.6233     7.0400     0.0159    -0.0723
   24    0.460   2205.26     0.0196     0.0012     0.0018     0.0046     0.0207     6.2786     7.3600     0.0134    -0.1470
   25    0.480   2206.28     0.0219     0.0014     0.0013     0.0048     0.0222     6.8894     7.6800     0.0145    -0.2743
   26    0.500   2207.25     0.0180     0.0014     0.0028     0.0050     0.0191     6.8819     8.0000     0.0111    -0.2178
   27    0.520   2208.20     0.0207     0.0014     0.0046     0.0052     0.0223     6.1920     8.3200     0.0140    -0.1057
   28    0.540   2209.24     0.0196     0.0012     0.0060     0.0054     0.0219     6.7865     8.6400     0.0133     0.0089
   29    0.560   2210.20     0.0221     0.0009     0.0076     0.0056     0.0251     3.8925     8.9600     0.0161     0.0894
   30    0.580   2211.18     0.0218     0.0013     0.0090     0.0058     0.0255     5.6279     9.2800     0.0162     0.1790
   31    0.600   2212.13     0.0231     0.0010     0.0086     0.0060     0.0268     4.4646     9.6000     0.0172     0.1647
   32    0.620   2213.12     0.0231     0.0008     0.0074     0.0062     0.0265     3.6088     9.9200     0.0165     0.1097
   33    0.640   2214.07     0.0225     0.0008     0.0080     0.0064     0.0256     3.7287    10.2400     0.0153     0.0488
   34    0.660   2215.04     0.0285     0.0016     0.0087     0.0066     0.0321     7.3673    10.5600     0.0215     0.0988
   35    0.680   2216.02     0.0487     0.0013     0.0055     0.0068     0.0515     2.5897    10.8800     0.0406    -0.0019
   36    0.700   2217.00     0.0487     0.0015     0.0058     0.0070     0.0509     3.2059    11.2000     0.0397    -0.0486
   37    0.720   2217.98     0.0474     0.0015     0.0082     0.0072     0.0504     3.0128    11.5200     0.0389     0.0009
   38    0.740   2218.93     0.0345     0.0014     0.0031     0.0074     0.0345     3.9191    11.8400     0.0227    -0.3253
   39    0.760   2219.89     0.0269     0.0015     0.0083     0.0076     0.0302     5.0216    12.1600     0.0181     0.0235
   40    0.780   2220.90     0.0292     0.0015     0.0105     0.0078     0.0336     5.3282    12.4800     0.0211     0.1268
   41    0.800   2221.90     0.0295     0.0012     0.0117     0.0080     0.0340     3.9433    12.8000     0.0212     0.1337
   42    0.820   2222.84     0.0285     0.0015     0.0139     0.0082     0.0341     5.3009    13.1200     0.0210     0.2438
   43    0.840   2223.83     0.0295     0.0015     0.0149     0.0084     0.0356     5.2392    13.4400     0.0221     0.2769
   44    0.860   2224.80     0.0318     0.0013     0.0150     0.0086     0.0381     4.2097    13.7600     0.0244     0.2691
   45    0.880   2225.80     0.0308     0.0015     0.0156     0.0088     0.0372     4.8126    14.0800     0.0231     0.2775
   46    0.900   2226.79     0.0340     0.0013     0.0161     0.0090     0.0407     3.9054    14.4000     0.0263     0.2691
   47    0.920   2227.76     0.0336     0.0011     0.0157     0.0092     0.0402     3.2468    14.7200     0.0255     0.2609
   48    0.940   2228.76     0.0332     0.0013     0.0145     0.0094     0.0394     3.8417    15.0400     0.0244     0.2217
   49    0.960   2229.74     0.0358     0.0010     0.0125     0.0096     0.0414     2.9273    15.3600     0.0261     0.1424
   50    0.980   2230.75     0.0374     0.0016     0.0127     0.0098     0.0426     4.2689    15.6800     0.0269     0.0934
   51    1.000   2231.72     0.0393     0.0017     0.0128     0.0100     0.0447     4.4236    16.0000     0.0287     0.0989
   52    1.020   2232.66     0.0415     0.0014     0.0115     0.0102     0.0467     3.5407    16.3200     0.0303     0.0689
   53    1.040   2233.64     0.0409     0.0016     0.0113     0.0104     0.0455     3.9972    16.6400     0.0288     0.0155
   54    1.060   2234.64     0.0435     0.0016     0.0131     0.0106     0.0487     3.7132    16.9600     0.0317     0.0571
   55    1.080   2235.61     0.0409     0.0016     0.0151     0.0108     0.0469     3.7012    17.2800     0.0296     0.1200
   56    1.100   2236.59     0.0398     0.0016     0.0165     0.0110     0.0466     3.9025    17.6000     0.0290     0.1774
   57    1.120   2237.59     0.0428     0.0013     0.0165     0.0112     0.0496     3.0859    17.9200     0.0317     0.1613
   58    1.140   2238.56     0.0429     0.0011     0.0185     0.0114     0.0504     2.6560    18.2400     0.0321     0.1983
   59    1.160   2239.55     0.0442     0.0016     0.0193     0.0116     0.0522     3.6783    18.5600     0.0336     0.2216
   60    1.180   2240.50     0.0476     0.0014     0.0189     0.0118     0.0555     2.9527    18.8800     0.0366     0.1900
   61    1.200   2241.46     0.0453     0.0017     0.0172     0.0120     0.0528     3.6435    19.2000     0.0336     0.1689
   62    1.220   2242.46     0.0466     0.0019     0.0168     0.0122     0.0536     4.1965    19.5200     0.0341     0.1324
   63    1.240   2243.44     0.0519     0.0017     0.0176     0.0124     0.0589     3.2456    19.8400     0.0390     0.1097
   64    1.260   2244.42     0.0494     0.0018     0.0184     0.0126     0.0572     3.6386    20.1600     0.0370     0.1615
   65    1.280   2245.42     0.0521     0.0017     0.0185     0.0128     0.0598     3.2973    20.4800     0.0393     0.1418
   66    1.300   2246.40     0.0565     0.0016     0.0197     0.0130     0.0643     2.9646    20.8000     0.0435     0.1271
   67    1.320   2247.35     0.0555     0.0016     0.0222     0.0132     0.0645     3.0072    21.1200     0.0434     0.1882
   68    1.340   2248.34     0.0582     0.0016     0.0233     0.0134     0.0681     2.8633    21.4400     0.0466     0.2173
   69    1.360   2249.32     0.0642     0.0018     0.0230     0.0136     0.0740     2.8242    21.7600     0.0522     0.1865
   70    1.380   2250.28     0.0704     0.0022     0.0210     0.0138     0.0798     3.2470    22.0800     0.0577     0.1458
   71    1.400   2251.28     0.0736     0.0025     0.0167     0.0140     0.0808     3.4010    22.4000     0.0584     0.0542
   72    1.420   2252.28     0.0747     0.0027     0.0144     0.0142     0.0813     3.5230    22.7200     0.0585     0.0257
   73    1.440   2253.28     0.0751     0.0025     0.0136     0.0144     0.0807     3.3180    23.0400     0.0576    -0.0177
   74    1.460   2254.23     0.0694     0.0027     0.0149     0.0146     0.0754     3.9301    23.3600     0.0521    -0.0018
   75    1.480   2255.24     0.0663     0.0026     0.0176     0.0148     0.0733     3.8039    23.6800     0.0496     0.0361
   76    1.500   2256.21     0.0633     0.0023     0.0216     0.0150     0.0718     3.5074    24.0000     0.0478     0.1088
   77    1.520   2257.21     0.0607     0.0020     0.0257     0.0152     0.0708     3.2561    24.3200     0.0465     0.1913
   78    1.540   2258.20     0.0613     0.0019     0.0285     0.0154     0.0730     3.1562    24.6400     0.0483     0.2579
   79    1.560   2259.16     0.0597     0.0017     0.0313     0.0156     0.0724     2.8258    24.9600     0.0474     0.3077
   80    1.580   2260.15     0.0602     0.0018     0.0340     0.0158     0.0741     2.9757    25.2800     0.0488     0.3540
   81    1.600   2261.11     0.0633     0.0020     0.0364     0.0160     0.0783     3.2971    25.6000     0.0527     0.3730
   82    1.620   2262.07     0.0712     0.0022     0.0372     0.0162     0.0869     3.1128    25.9200     0.0610     0.3457
   83    1.640   2263.08     0.0796     0.0020     0.0348     0.0164     0.0951     2.5966    26.2400     0.0688     0.2951
   84    1.660   2264.04     0.0816     0.0017     0.0301     0.0166     0.0947     2.1035    26.5600     0.0681     0.2146
   85    1.680   2265.00     0.0806     0.0024     0.0276     0.0168     0.0925     2.9318    26.8800     0.0656     0.1742
   86    1.700   2265.98     0.0832     0.0027     0.0263     0.0170     0.0943     3.3211    27.2000     0.0671     0.1404
   87    1.720   2266.96     0.0912     0.0027     0.0284     0.0172     0.1028     2.9791    27.5200     0.0752     0.1362
   88    1.740   2267.97     0.0910     0.0027     0.0294     0.0174     0.1034     3.0044    27.8400     0.0756     0.1618
   89    1.760   2268.95     0.0905     0.0027     0.0265     0.0176     0.1021     2.9521    28.1600     0.0739     0.1338
   90    1.780   2269.94     0.0852     0.0028     0.0242     0.0178     0.0962     3.2161    28.4800     0.0677     0.1208
   91    1.800   2270.91     0.0815     0.0027     0.0260     0.0180     0.0911     3.2307    28.8000     0.0623     0.0775
   92    1.820   2271.88     0.0814     0.0027     0.0302     0.0182     0.0937     3.3651    29.1200     0.0646     0.1711
   93    1.840   2272.84     0.0754     0.0024     0.0363     0.0184     0.0899     3.1415    29.4400     0.0604     0.2641
   94    1.860   2273.85     0.0802     0.0023     0.0403     0.0186     0.0967     2.9110    29.7600     0.0669     0.3086
   95    1.880   2274.82     0.0787     0.0024     0.0431     0.0188     0.0965     3.0527    30.0800     0.0665     0.3569
   96    1.900   2275.82     0.0769     0.0020     0.0440     0.0190     0.0953     2.5266    30.4000     0.0649     0.3839
   97    1.920   2276.79     0.0754     0.0024     0.0450     0.0192     0.0937     3.1869    30.7200     0.0630     0.3881
   98    1.940   2277.78     0.0714     0.0025     0.0476     0.0194     0.0911     3.4796    31.0400     0.0601     0.4568
   99    1.960   2278.75     0.0738     0.0024     0.0496     0.0196     0.0944     3.2377    31.3600     0.0630     0.4643
  100    1.980   2279.77     0.0738     0.0026     0.0491     0.0198     0.0946     3.4696    31.6800     0.0629     0.4734
  101    2.000   2280.76     0.0760     0.0027     0.0493     0.0200     0.0968     3.5540    32.0000     0.0648     0.4544
  102    2.020   2281.71     0.0762     0.0024     0.0491     0.0202     0.0967     3.1138    32.3200     0.0644     0.4450
  103    2.040   2282.71     0.0776     0.0025     0.0508     0.0204     0.0987     3.2131    32.6400     0.0661     0.4540
  104    2.060   2283.70     0.0777     0.0026     0.0529     0.0206     0.0997     3.4604    32.9600     0.0667     0.4732
  105    2.080   2284.65     0.0813     0.0026     0.0534     0.0208     0.1036     3.1425    33.2800     0.0703     0.4590
  106    2.100   2285.66     0.0841     0.0025     0.0531     0.0210     0.1068     3.0565    33.6000     0.0732     0.4515
  107    2.120   2286.64     0.0869     0.0026     0.0486     0.0212     0.1079     3.0674    33.9200     0.0739     0.3872
  108    2.140   2287.61     0.0879     0.0026     0.0488     0.0214     0.1084     3.0292    34.2400     0.0741     0.3680
  109    2.160   2288.58     0.0856     0.0027     0.0533     0.0216     0.1072     3.1775    34.5600     0.0726     0.4085
  110    2.180   2289.56     0.0904     0.0033     0.0528     0.0218     0.1132     3.7042    34.8800     0.0783     0.4158
  111    2.200   2290.54     0.0941     0.0033     0.0512     0.0220     0.1158     3.5773    35.2000     0.0806     0.3701
  112    2.220   2291.50     0.0939     0.0026     0.0440     0.0222     0.1140     2.7833    35.5200     0.0785     0.3270
  113    2.240   2292.49     0.0949     0.0028     0.0378     0.0224     0.1116     2.8493    35.8400     0.0758     0.2289
  114    2.260   2293.47     0.0872     0.0028     0.0442     0.0226     0.1043     3.2053    36.1600     0.0681     0.2664
  115    2.280   2294.41     0.0797     0.0028     0.0510     0.0228     0.1000     3.2990    36.4800     0.0635     0.4040
  116    2.300   2295.41     0.0756     0.0027     0.0552     0.0230     0.0982     3.3955    36.8000     0.0614     0.5020
  117    2.320   2296.38     0.0774     0.0027     0.0541     0.0232     0.1009     3.4712    37.1200     0.0638     0.5147
  118    2.340   2297.41     0.0832     0.0026     0.0557     0.0234     0.1061     3.2247    37.4400     0.0687     0.4546
  119    2.360   2298.36     0.0907     0.0026     0.0548     0.0236     0.1134     2.9234    37.7600     0.0756     0.4007
  120    2.380   2311.19     0.0906     0.0032     0.0511     0.0238     0.1128     3.4712    38.0800     0.0747     0.3843
  121    2.400   2334.90     0.0891     0.0032     0.0464     0.0240     0.1093     3.5107    38.4000     0.0709     0.3334
  122    2.420   2358.61     0.0876     0.0034     0.0417     0.0242     0.1058     3.7827    38.7200     0.0671     0.2825
  123    2.440   2368.14     0.0901     0.0032     0.0410     0.0244     0.1071     3.5553    39.0400     0.0681     0.2343
  124    2.460   2369.12     0.0903     0.0034     0.0467     0.0246     0.1093     3.8014    39.3600     0.0699     0.2956
  125    2.480   2370.13     0.0921     0.0031     0.0480     0.0248     0.1122     3.3175    39.6800     0.0725     0.3187
  126    2.500   2371.08     0.0916     0.0032     0.0518     0.0250     0.1127     3.5846    40.0000     0.0727     0.3476
  127    2.520   2372.06     0.0897     0.0034     0.0571     0.0252     0.1126     3.7017    40.3200     0.0723     0.4062
  128    2.540   2373.06     0.0892     0.0033     0.0617     0.0254     0.1146     3.7160    40.6400     0.0739     0.4725
  129    2.560   2374.00     0.0915     0.0033     0.0613     0.0256     0.1176     3.6136    40.9600     0.0766     0.4769
  130    2.580   2375.01     0.0931     0.0028     0.0631     0.0258     0.1194     3.0176    41.2800     0.0781     0.4705
  131    2.600   2375.97     0.0975     0.0031     0.0655     0.0260     0.1250     3.1866    41.6000     0.0834     0.4736
  132    2.620   2376.98     0.0984     0.0027     0.0684     0.0262     0.1266     2.7337    41.9200     0.0846     0.4835
  133    2.640   2377.91     0.0981     0.0028     0.0692     0.0264     0.1274     2.9263    42.2400     0.0851     0.5085
  134    2.660   2378.93     0.0948     0.0030     0.0707     0.0266     0.1243     3.1033    42.5600     0.0817     0.5326
  135    2.680   2379.85     0.1002     0.0031     0.0703     0.0268     0.1301     3.1407    42.8800     0.0872     0.5080
  136    2.700   2380.85     0.1010     0.0034     0.0704     0.0270     0.1304     3.3141    43.2000     0.0872     0.4926
  137    2.720   2381.81     0.1021     0.0035     0.0664     0.0272     0.1318     3.3943    43.5200     0.0882     0.4931
  138    2.740   2382.76     0.1039     0.0039     0.0651     0.0274     0.1313     3.7484    43.8400     0.0875     0.4340
  139    2.760   2383.77     0.1009     0.0034     0.0624     0.0276     0.1275     3.3358    44.1600     0.0833     0.4300
  140    2.780   2384.74     0.1016     0.0035     0.0616     0.0278     0.1272     3.4175    44.4800     0.0828     0.4008
  141    2.800   2385.75     0.0921     0.0034     0.0641     0.0280     0.1188     3.4678    44.8000     0.0740     0.4813
  142    2.820   2386.71     0.0924     0.0030     0.0680     0.0282     0.1203     3.2423    45.1200     0.0752     0.5095
  143    2.840   2387.69     0.0885     0.0032     0.0684     0.0284     0.1174     3.6295    45.4400     0.0719     0.5620
  144    2.860   2388.63     0.0881     0.0029     0.0693     0.0286     0.1168     3.3013    45.7600     0.0710     0.5608
  145    2.880   2389.65     0.0833     0.0025     0.0697     0.0288     0.1129     3.0319    46.0800     0.0668     0.6253
  146    2.900   2390.65     0.0960     0.0027     0.0669     0.0290     0.1245     2.8574    46.4000     0.0781     0.4996
  147    2.920   2391.60     0.1016     0.0031     0.0636     0.0292     0.1288     3.1644    46.7200     0.0821     0.4335
  148    2.940   2392.60     0.1019     0.0034     0.0643     0.0294     0.1289     3.4225    47.0400     0.0818     0.4260
  149    2.960   2393.59     0.1049     0.0037     0.0608     0.0296     0.1314     3.5476    47.3600     0.0840     0.3989
  150    2.980   2394.55     0.1072     0.0038     0.0523     0.0298     0.1305     3.5953    47.6800     0.0829     0.3110
  151    3.000   2395.49     0.1081     0.0035     0.0544     0.0300     0.1305     3.2383    48.0000     0.0825     0.2830
  152    3.020   2396.51     0.1052     0.0038     0.0602     0.0302     0.1296     3.5453    48.3200     0.0812     0.3419
  153    3.040   2397.52     0.1003     0.0036     0.0665     0.0304     0.1273     3.5056    48.6400     0.0787     0.4318
  154    3.060   2398.49     0.0993     0.0035     0.0734     0.0306     0.1291     3.5448    48.9600     0.0801     0.5026
  155    3.080   2399.46     0.1011     0.0034     0.0728     0.0308     0.1318     3.4121    49.2800     0.0825     0.5125
  156    3.100   2400.41     0.1085     0.0035     0.0718     0.0310     0.1391     3.3270    49.6000     0.0895     0.4696
  157    3.120   2401.41     0.1091     0.0032     0.0727     0.0312     0.1397     2.8809    49.9200     0.0898     0.4634
  158    3.140   2402.43     0.1127     0.0031     0.0707     0.0314     0.1430     2.8275    50.2400     0.0927     0.4377
  159    3.160   2403.36     0.1165     0.0034     0.0716     0.0316     0.1459     2.8899    50.5600     0.0954     0.4034
  160    3.180   2404.33     0.1187     0.0031     0.0713     0.0318     0.1488     2.7029    50.8800     0.0980     0.4082
  161    3.200   2405.30     0.1211     0.0032     0.0667     0.0320     0.1499     2.7251    51.2000     0.0987     0.3705
  162    3.220   2406.29     0.1209     0.0031     0.0632     0.0322     0.1479     2.5682    51.5200     0.0963     0.3316
  163    3.240   2407.28     0.1214     0.0028     0.0652     0.0324     0.1486     2.3038    51.8400     0.0967     0.3330
  164    3.260   2408.28     0.1212     0.0026     0.0624     0.0326     0.1478     2.1023    52.1600     0.0956     0.3216
  165    3.280   2409.23     0.1232     0.0025     0.0600     0.0328     0.1488     2.0386    52.4800     0.0963     0.2916
  166    3.300   2410.20     0.1217     0.0030     0.0555     0.0330     0.1461     2.4335    52.8000     0.0933     0.2685
  167    3.320   2411.20     0.1223     0.0037     0.0472     0.0332     0.1436     3.0314    53.1200     0.0905     0.1939
  168    3.340   2412.15     0.1378     0.0038     0.0377     0.0334     0.1547     3.0324    53.4400     0.1013     0.0690
  169    3.360   2413.11     0.1531     0.0043     0.0314     0.0336     0.1670     2.9416    53.7600     0.1132    -0.0048
  170    3.380   2414.15     0.1567     0.0043     0.0274     0.0338     0.1687     2.7259    54.0800     0.1146    -0.0459
  171    3.400   2415.12     0.1580     0.0046     0.0290     0.0340     0.1692     2.9544    54.4000     0.1148    -0.0647
  172    3.420   2416.09     0.1508     0.0048     0.0357     0.0342     0.1648     3.0845    54.7200     0.1101    -0.0067
  173    3.440   2417.08     0.1501     0.0048     0.0429     0.0344     0.1669     3.2023    55.0400     0.1119     0.0501
  174    3.460   2418.09     0.1509     0.0048     0.0524     0.0346     0.1716     3.2010    55.3600     0.1163     0.1272
  175    3.480   2419.08     0.1543     0.0047     0.0587     0.0348     0.1784     3.0514    55.6800     0.1227     0.1833
  176    3.500   2420.03     0.1568     0.0048     0.0611     0.0350     0.1821     3.0534    56.0000     0.1261     0.2003
  177    3.520   2421.05     0.1548     0.0045     0.0652     0.0352     0.1814     2.8798    56.3200     0.1251     0.2252
  178    3.540   2421.99     0.1543     0.0050     0.0677     0.0354     0.1829     3.2515    56.6400     0.1262     0.2585
  179    3.560   2423.02     0.1520     0.0049     0.0674     0.0356     0.1802     3.2362    56.9600     0.1233     0.2553
  180    3.580   2423.99     0.1465     0.0046     0.0707     0.0358     0.1754     3.1426    57.2800     0.1182     0.2802
  181    3.600   2424.94     0.1477     0.0044     0.0765     0.0360     0.1789     2.9789    57.6000     0.1213     0.3143
  182    3.620   2425.90     0.1458     0.0041     0.0796     0.0362     0.1794     2.8028    57.9200     0.1215     0.3608
  183    3.640   2426.89     0.1502     0.0044     0.0763     0.0364     0.1824     2.9575    58.2400     0.1241     0.3250
  184    3.660   2427.89     0.1572     0.0045     0.0759     0.0366     0.1889     2.8805    58.5600     0.1303     0.2985
  185    3.680   2428.84     0.1527     0.0042     0.0746     0.0368     0.1848     2.7465    58.8800     0.1260     0.3153
  186    3.700   2429.84     0.1466     0.0044     0.0709     0.0370     0.1773     2.9330    59.2000     0.1181     0.3051
  187    3.720   2430.83     0.1418     0.0046     0.0694     0.0372     0.1710     3.2075    59.5200     0.1115     0.2898
  188    3.740   2431.80     0.1332     0.0045     0.0713     0.0374     0.1628     3.2264    59.8400     0.1029     0.3199
  189    3.760   2432.76     0.1247     0.0046     0.0758     0.0376     0.1559     3.6306    60.1600     0.0957     0.3827
  190    3.780   2433.75     0.1190     0.0041     0.0796     0.0378     0.1518     3.4285    60.4800     0.0913     0.4405
  191    3.800   2434.73     0.1162     0.0040     0.0832     0.0380     0.1506     3.4134    60.8000     0.0898     0.4902
  192    3.820   2435.68     0.1055     0.0040     0.0871     0.0382     0.1416     3.7335    61.1200     0.0805     0.5955
  193    3.840   2436.67     0.1034     0.0037     0.0903     0.0384     0.1409     3.6225    61.4400     0.0795     0.6404
  194    3.860   2437.64     0.1061     0.0032     0.0897     0.0386     0.1439     3.0721    61.7600     0.0821     0.6250
  195    3.880   2438.62     0.1069     0.0033     0.0908     0.0388     0.1448     3.1079    62.0800     0.0827     0.6213
  196    3.900   2439.62     0.1098     0.0032     0.0932     0.0390     0.1489     2.9922    62.4000     0.0865     0.6255
  197    3.920   2440.63     0.1114     0.0033     0.0952     0.0392     0.1511     2.9050    62.7200     0.0883     0.6251
  198    3.940   2441.63     0.1102     0.0030     0.0929     0.0394     0.1498     2.7794    63.0400     0.0867     0.6309
  199    3.960   2442.59     0.1165     0.0029     0.0923     0.0396     0.1553     2.5313    63.3600     0.0920     0.5753
  200    3.980   2443.57     0.1182     0.0031     0.0917     0.0398     0.1568     2.6669    63.6800     0.0931     0.5598
  201    4.000   2444.55     0.1230     0.0034     0.0920     0.0400     0.1615     2.7615    64.0000     0.0975     0.5295
  202    4.020   2445.56     0.1286     0.0036     0.0942     0.0402     0.1678     2.8110    64.3200     0.1035     0.5146
  203    4.040   2446.55     0.1359     0.0037     0.0878     0.0404     0.1740     2.7418    64.6400     0.1093     0.4589
  204    4.060   2447.54     0.1399     0.0035     0.0780     0.0406     0.1740     2.4734    64.9600     0.1090     0.3724
  205    4.080   2448.52     0.1411     0.0038     0.0775     0.0408     0.1734     2.7128    65.2800     0.1081     0.3349
  206    4.100   2449.50     0.1407     0.0042     0.0800     0.0410     0.1741     2.9980    65.6000     0.1085     0.3564
  207    4.120   2450.47     0.1388     0.0041     0.0770     0.0412     0.1714     2.8956    65.9200     0.1055     0.3438
  208    4.140   2451.43     0.1364     0.0039     0.0758     0.0414     0.1689     2.8336    66.2400     0.1026     0.3489
  209    4.160   2452.44     0.1325     0.0040     0.0698     0.0416     0.1627     2.9712    66.5600     0.0961     0.3146
  210    4.180   2453.42     0.1306     0.0036     0.0682     0.0418     0.1595     2.7359    66.8800     0.0926     0.2927
  211    4.200   2454.34     0.1273     0.0036     0.0668     0.0420     0.1557     2.8647    67.2000     0.0885     0.2901
  212    4.220   2455.36     0.1187     0.0036     0.0692     0.0422     0.1470     2.9800    67.5200     0.0794     0.3168
  213    4.240   2456.31     0.1145     0.0036     0.0749     0.0424     0.1452     3.0953    67.8400     0.0774     0.3959
  214    4.260   2457.30     0.1132     0.0036     0.0773     0.0426     0.1461     3.1426    68.1600     0.0780     0.4605
  215    4.280   2458.27     0.1105     0.0034     0.0758     0.0428     0.1421     3.0131    68.4800     0.0736     0.4418
  216    4.300   2459.26     0.1126     0.0034     0.0764     0.0430     0.1451     3.0971    68.8000     0.0763     0.4495
  217    4.320   2486.39     0.1212     0.0036     0.0721     0.0432     0.1521     3.1974    69.1200     0.0830     0.3774
  218    4.340   2516.21     0.1305     0.0037     0.0678     0.0434     0.1596     3.2977    69.4400     0.0902     0.2959
  219    4.360   2538.47     0.1363     0.0037     0.0691     0.0436     0.1646     3.0681    69.7600     0.0948     0.2507
  220    4.380   2539.50     0.1401     0.0038     0.0697     0.0438     0.1700     2.7490    70.0800     0.0999     0.2733
  221    4.400   2541.02     0.1407     0.0039     0.0709     0.0440     0.1699     2.7385    70.4000     0.0995     0.2590
  222    4.420   2544.46     0.1336     0.0037     0.0747     0.0442     0.1644     2.5904    70.7200     0.0937     0.3187
  223    4.440   2547.90     0.1265     0.0032     0.0785     0.0444     0.1589     2.2536    71.0400     0.0878     0.3785
  224    4.460   2550.44     0.1201     0.0033     0.0833     0.0446     0.1545     2.6788    71.3600     0.0832     0.4498
  225    4.480   2551.44     0.1165     0.0028     0.0853     0.0448     0.1521     2.3970    71.6800     0.0804     0.4953
  226    4.500   2552.39     0.1178     0.0029     0.0850     0.0450     0.1537     2.4652    72.0000     0.0817     0.4949
  227    4.520   2553.37     0.1227     0.0029     0.0815     0.0452     0.1585     2.4103    72.3200     0.0862     0.4646
  228    4.540   2554.34     0.1325     0.0028     0.0726     0.0454     0.1640     2.2016    72.6400     0.0914     0.3259
  229    4.560   2555.37     0.1397     0.0030     0.0712     0.0456     0.1692     2.2110    72.9600     0.0963     0.2571
  230    4.580   2556.34     0.1385     0.0029     0.0827     0.0458     0.1719     2.1270    73.2800     0.0986     0.3413
  231    4.600   2557.33     0.1382     0.0030     0.0883     0.0460     0.1746     2.1629    73.6000     0.1010     0.4028
  232    4.620   2558.32     0.1412     0.0031     0.0930     0.0462     0.1794     2.2358    73.9200     0.1055     0.4240
  233    4.640   2559.27     0.1526     0.0032     0.0967     0.0464     0.1928     2.1065    74.2400     0.1185     0.4170
  234    4.660   2560.24     0.1475     0.0032     0.0988     0.0466     0.1887     2.1277    74.5600     0.1142     0.4512
  235    4.680   2561.21     0.1461     0.0031     0.0924     0.0468     0.1874     2.0977    74.8800     0.1125     0.4576
  236    4.700   2562.16     0.1417     0.0032     0.0876     0.0470     0.1782     2.2297    75.2000     0.1030     0.3874
  237    4.720   2563.18     0.1362     0.0031     0.0900     0.0472     0.1739     2.2794    75.5200     0.0983     0.4329
  238    4.740   2564.16     0.1349     0.0031     0.0924     0.0474     0.1730     2.2956    75.8400     0.0972     0.4460
  239    4.760   2565.14     0.1330     0.0030     0.0968     0.0476     0.1732     2.2330    76.1600     0.0970     0.4951
  240    4.780   2566.10     0.1340     0.0030     0.0963     0.0478     0.1743     2.3044    76.4800     0.0978     0.4929
  241    4.800   2567.06     0.1353     0.0027     0.0967     0.0480     0.1759     1.9881    76.8000     0.0991     0.4904
  242    4.820   2568.04     0.1366     0.0026     0.0968     0.0482     0.1772     1.9341    77.1200     0.1001     0.4847
  243    4.840   2569.03     0.1360     0.0026     0.0968     0.0484     0.1767     1.9284    77.4400     0.0993     0.4897
  244    4.860   2570.01     0.1391     0.0026     0.0943     0.0486     0.1794     1.8898    77.7600     0.1016     0.4653
  245    4.880   2570.97     0.1413     0.0026     0.0894     0.0488     0.1795     1.8627    78.0800     0.1015     0.4173
  246    4.900   2571.93     0.1452     0.0030     0.0843     0.0490     0.1814     2.1134    78.4000     0.1030     0.3603
  247    4.920   2572.93     0.1460     0.0029     0.0797     0.0492     0.1799     1.9942    78.7200     0.1012     0.3133
  248    4.940   2573.92     0.1413     0.0030     0.0734     0.0494     0.1733     2.0931    79.0400     0.0943     0.2840
  249    4.960   2574.95     0.1388     0.0032     0.0745     0.0496     0.1694     2.3190    79.3600     0.0900     0.2593
  250    4.980   2575.90     0.1472     0.0034     0.0789     0.0498     0.1800     2.4146    79.6800     0.1003     0.2817
  251    5.000   2576.87     0.1488     0.0038     0.0824     0.0500     0.1828     2.5501    80.0000     0.1028     0.3021
  252    5.020   2577.86     0.1561     0.0036     0.0759     0.0502     0.1886     2.3646    80.3200     0.1083     0.2517
  253    5.040   2578.85     0.1585     0.0037     0.0786     0.0504     0.1904     2.3642    80.6400     0.1097     0.2324
  254    5.060   2579.81     0.1569     0.0037     0.0860     0.0506     0.1920     2.3868    80.9600     0.1110     0.2964
  255    5.080   2580.81     0.1568     0.0039     0.0934     0.0508     0.1950     2.4565    81.2800     0.1138     0.3548
  256    5.100   2581.78     0.1611     0.0039     0.0990     0.0510     0.2019     2.4330    81.6000     0.1203     0.3840
  257    5.120   2582.77     0.1589     0.0037     0.1032     0.0512     0.2017     2.3662    81.9200     0.1198     0.4224
  258    5.140   2583.73     0.1612     0.0040     0.1067     0.0514     0.2055     2.5033    82.2400     0.1233     0.4384
  259    5.160   2584.70     0.1636     0.0041     0.1034     0.0516     0.2077     2.5156    82.5600     0.1251     0.4267
  260    5.180   2585.65     0.1629     0.0043     0.1054     0.0518     0.2066     2.6481    82.8800     0.1238     0.4238
  261    5.200   2586.62     0.1644     0.0042     0.1097     0.0520     0.2100     2.5848    83.2000     0.1268     0.4451
  262    5.220   2587.64     0.1654     0.0039     0.1108     0.0522     0.2119     2.4041    83.5200     0.1284     0.4557
  263    5.240   2588.60     0.1656     0.0041     0.1107     0.0524     0.2121     2.4396    83.8400     0.1283     0.4556
  264    5.260   2589.58     0.1645     0.0040     0.1053     0.0526     0.2097     2.4504    84.1600     0.1255     0.4390
  265    5.280   2590.54     0.1651     0.0043     0.1021     0.0528     0.2085     2.6286    84.4800     0.1241     0.4080
  266    5.300   2591.47     0.1629     0.0042     0.1061     0.0530     0.2067     2.5896    84.8000     0.1219     0.4203
  267    5.320   2592.40     0.1629     0.0042     0.1085     0.0532     0.2087     2.5816    85.1200     0.1235     0.4504
  268    5.340   2593.40     0.1609     0.0040     0.1094     0.0534     0.2068     2.4552    85.4400     0.1214     0.4611
  269    5.360   2594.35     0.1580     0.0039     0.1106     0.0536     0.2047     2.4420    85.7600     0.1190     0.4842
  270    5.380   2595.35     0.1589     0.0036     0.1144     0.0538     0.2066     2.2907    86.0800     0.1205     0.4955
  271    5.400   2596.30     0.1588     0.0036     0.1174     0.0540     0.2076     2.3126    86.4000     0.1212     0.5136
  272    5.420   2597.32     0.1612     0.0039     0.1166     0.0542     0.2103     2.3951    86.7200     0.1236     0.5073
  273    5.440   2598.34     0.1633     0.0039     0.1134     0.0544     0.2122     2.3693    87.0400     0.1252     0.4945
  274    5.460   2599.30     0.1602     0.0040     0.1113     0.0546     0.2069     2.4845    87.3600     0.1196     0.4734
  275    5.480   2600.26     0.1685     0.0041     0.1113     0.0548     0.2152     2.4968    87.6800     0.1275     0.4412
  276    5.500   2601.26     0.1731     0.0043     0.1092     0.0550     0.2193     2.5094    88.0000     0.1313     0.4197
  277    5.520   2602.24     0.1715     0.0046     0.1107     0.0552     0.2174     2.6210    88.3200     0.1291     0.4190
  278    5.540   2603.21     0.1697     0.0044     0.1112     0.0554     0.2166     2.5994    88.6400     0.1280     0.4405
  279    5.560   2604.08     0.1735     0.0045     0.1085     0.0556     0.2196     2.6421    88.9600     0.1306     0.4144
  280    5.580   2604.89     0.1720     0.0044     0.1063     0.0558     0.2164     2.5457    89.2800     0.1271     0.3925
  281    5.600   2605.70     0.1652     0.0044     0.1099     0.0560     0.2107     2.6555    89.6000     0.1211     0.4314
  282    5.620   2606.64     0.1615     0.0044     0.1153     0.0562     0.2091     2.6572    89.9200     0.1192     0.4804
  283    5.640   2607.62     0.1585     0.0041     0.1161     0.0564     0.2075     2.5549    90.2400     0.1172     0.5142
  284    5.660   2608.58     0.1615     0.0043     0.1189     0.0566     0.2108     2.6540    90.5600     0.1202     0.5056
  285    5.680   2609.55     0.1574     0.0041     0.1229     0.0568     0.2082     2.5871    90.8800     0.1173     0.5474
  286    5.700   2610.53     0.1544     0.0040     0.1231     0.0570     0.2063     2.5293    91.2000     0.1151     0.5799
  287    5.720   2611.49     0.1497     0.0039     0.1235     0.0572     0.2015     2.5674    91.5200     0.1100     0.6021
  288    5.740   2612.47     0.1472     0.0039     0.1250     0.0574     0.1994     2.6441    91.8400     0.1075     0.6210
  289    5.760   2613.47     0.1438     0.0038     0.1264     0.0576     0.1971     2.5942    92.1600     0.1050     0.6619
  290    5.780   2614.45     0.1490     0.0035     0.1243     0.0578     0.2005     2.3783    92.4800     0.1080     0.6001
  291    5.800   2615.42     0.1498     0.0039     0.1271     0.0580     0.2029     2.6327    92.8000     0.1101     0.6226
  292    5.820   2616.39     0.1561     0.0039     0.1282     0.0582     0.2107     2.5746    93.1200     0.1175     0.6101
  293    5.840   2617.37     0.1591     0.0038     0.1178     0.0584     0.2104     2.4213    93.4400     0.1170     0.5455
  294    5.860   2618.38     0.1621     0.0042     0.1158     0.0586     0.2109     2.5955    93.7600     0.1171     0.4925
  295    5.880   2619.35     0.1688     0.0040     0.1189     0.0588     0.2177     2.4240    94.0800     0.1236     0.4659
  296    5.900   2620.31     0.1719     0.0045     0.1214     0.0590     0.2227     2.5888    94.4000     0.1283     0.4834
  297    5.920   2621.32     0.1724     0.0043     0.1215     0.0592     0.2235     2.4717    94.7200     0.1287     0.4852
  298    5.940   2622.33     0.1712     0.0042     0.1187     0.0594     0.2215     2.4566    95.0400     0.1264     0.4762
  299    5.960   2623.34     0.1662     0.0042     0.1192     0.0596     0.2163     2.4757    95.3600     0.1210     0.4942
  300    5.980   2624.28     0.1660     0.0044     0.1181     0.0598     0.2155     2.6163    95.6800     0.1198     0.4837
  301    6.000   2625.32     0.1599     0.0041     0.1140     0.0600     0.2076     2.5319    96.0000     0.1116     0.4811
  302    6.020   2626.25     0.1608     0.0040     0.1163     0.0602     0.2091     2.4646    96.3200     0.1128     0.4872
  303    6.040   2627.25     0.1631     0.0040     0.1208     0.0604     0.2128     2.4922    96.6400     0.1162     0.4989
  304    6.060   2628.22     0.1598     0.0039     0.1261     0.0606     0.2122     2.4153    96.9600     0.1153     0.5567
  305    6.080   2629.20     0.1589     0.0037     0.1313     0.0608     0.2134     2.3242    97.2800     0.1161     0.5925
  306    6.100   2630.20     0.1592     0.0039     0.1354     0.0610     0.2157     2.4972    97.6000     0.1181     0.6219
  307    6.120   2631.21     0.1586     0.0037     0.1340     0.0612     0.2155     2.3479    97.9200     0.1176     0.6313
  308    6.140   2632.15     0.1638     0.0038     0.1286     0.0614     0.2187     2.3149    98.2400     0.1204     0.5746
  309    6.160   2633.09     0.1582     0.0039     0.1295     0.0616     0.2123     2.4389    98.5600     0.1137     0.5909
  310    6.180   2634.10     0.1588     0.0041     0.1309     0.0618     0.2136     2.5635    98.8800     0.1147     0.5990
  311    6.200   2635.09     0.1550     0.0042     0.1284     0.0620     0.2093     2.6881    99.2000     0.1101     0.6122
  312    6.220   2636.06     0.1519     0.0043     0.1283     0.0622     0.2059     2.8427    99.5200     0.1064     0.6239
  313    6.240   2637.03     0.1516     0.0038     0.1308     0.0624     0.2060     2.4522    99.8400     0.1061     0.6325
  314    6.260   2651.99     0.1526     0.0032     0.1315     0.0626     0.2078     2.1270   100.1600     0.1076     0.6419
  315    6.280   2676.91     0.1590     0.0030     0.1320     0.0628     0.2143     1.9998   100.4800     0.1138     0.6110
  316    6.300   2701.83     0.1653     0.0030     0.1325     0.0630     0.2209     2.0036   100.8000     0.1201     0.5801
  317    6.320   2718.59     0.1766     0.0031     0.1360     0.0632     0.2330     1.8232   101.1200     0.1319     0.5409
  318    6.340   2719.55     0.1957     0.0037     0.1187     0.0634     0.2486     1.8980   101.4400     0.1472     0.4278
  319    6.360   2720.52     0.2117     0.0043     0.1111     0.0636     0.2586     2.0229   101.7600     0.1568     0.3068
  320    6.380   2721.53     0.2200     0.0050     0.1015     0.0638     0.2652     2.3055   102.0800     0.1632     0.2695
  321    6.400   2722.55     0.2249     0.0062     0.0929     0.0640     0.2648     2.7893   102.4000     0.1624     0.1917
  322    6.420   2723.54     0.2291     0.0074     0.0868     0.0642     0.2665     3.2229   102.7200     0.1637     0.1513
  323    6.440   2724.55     0.2268     0.0073     0.0835     0.0644     0.2623     3.1957   103.0400     0.1593     0.1276
  324    6.460   2725.55     0.2192     0.0070     0.0820     0.0646     0.2535     3.1532   103.3600     0.1502     0.1145
  325    6.480   2726.66     0.2093     0.0065     0.0864     0.0648     0.2444     3.2301   103.6800     0.1407     0.1336
  326    6.500   2745.91     0.2027     0.0061     0.0952     0.0650     0.2414     3.0908   104.0000     0.1374     0.1993
  327    6.520   2766.01     0.1965     0.0055     0.1036     0.0652     0.2389     2.8045   104.3200     0.1345     0.2665
  328    6.540   2772.32     0.1904     0.0051     0.1060     0.0654     0.2343     2.6796   104.6400     0.1297     0.3025
  329    6.560   2772.95     0.1887     0.0046     0.1115     0.0656     0.2347     2.4412   104.9600     0.1297     0.3383
  330    6.580   2773.57     0.1864     0.0042     0.1134     0.0658     0.2340     2.2560   105.2800     0.1287     0.3701
  331    6.600   2774.20     0.1844     0.0041     0.1126     0.0660     0.2319     2.2173   105.6000     0.1263     0.3735
  332    6.620   2774.85     0.1805     0.0041     0.1101     0.0662     0.2267     2.2640   105.9200     0.1207     0.3619
  333    6.640   2775.49     0.1844     0.0039     0.1130     0.0664     0.2311     2.1068   106.2400     0.1249     0.3596
  334    6.660   2776.16     0.1828     0.0042     0.1153     0.0666     0.2311     2.2910   106.5600     0.1245     0.3875
  335    6.680   2776.77     0.1878     0.0042     0.1137     0.0668     0.2360     2.2919   106.8800     0.1291     0.3718
  336    6.700   2777.39     0.1895     0.0045     0.1115     0.0670     0.2360     2.4024   107.2000     0.1288     0.3407
  337    6.720   2778.03     0.1941     0.0048     0.1143     0.0672     0.2415     2.5129   107.5200     0.1340     0.3420
  338    6.740   2778.65     0.1975     0.0047     0.1173     0.0674     0.2463     2.4301   107.8400     0.1385     0.3532
  339    6.760   2779.27     0.1968     0.0046     0.1189     0.0676     0.2465     2.3124   108.1600     0.1384     0.3669
  340    6.780   2780.30     0.1947     0.0049     0.1208     0.0678     0.2450     2.5020   108.4800     0.1365     0.3809
  341    6.800   2794.21     0.1891     0.0050     0.1237     0.0680     0.2407     2.5682   108.8000     0.1319     0.4172
  342    6.820   2808.12     0.1836     0.0048     0.1266     0.0682     0.2364     2.4782   109.1200     0.1272     0.4535
  343    6.840   2820.92     0.1785     0.0049     0.1284     0.0684     0.2324     2.6983   109.4400     0.1229     0.4872
  344    6.860   2821.92     0.1759     0.0046     0.1338     0.0686     0.2313     2.5888   109.7600     0.1215     0.5216
  345    6.880   2822.86     0.1710     0.0045     0.1398     0.0688     0.2288     2.6157   110.0800     0.1187     0.5801
  346    6.900   2823.87     0.1712     0.0044     0.1455     0.0690     0.2314     2.5572   110.4000     0.1210     0.6135
  347    6.920   2824.89     0.1869     0.0046     0.1468     0.0692     0.2485     2.4972   110.7200     0.1378     0.5619
  348    6.940   2825.92     0.1886     0.0043     0.1502     0.0694     0.2508     2.2630   111.0400     0.1397     0.5623
  349    6.960   2826.93     0.1901     0.0043     0.1549     0.0696     0.2552     2.2870   111.3600     0.1438     0.5932
  350    6.980   2827.87     0.1916     0.0042     0.1555     0.0698     0.2574     2.2046   111.6800     0.1457     0.5956
  351    7.000   2828.88     0.1948     0.0043     0.1540     0.0700     0.2592     2.2255   112.0000     0.1472     0.5665
  352    7.020   2829.92     0.1942     0.0042     0.1575     0.0702     0.2596     2.1680   112.3200     0.1472     0.5793
  353    7.040   2830.92     0.1987     0.0042     0.1626     0.0704     0.2666     2.1363   112.6400     0.1539     0.5925
  354    7.060   2831.85     0.1962     0.0041     0.1625     0.0706     0.2652     2.0727   112.9600     0.1522     0.6151
  355    7.080   2832.85     0.2012     0.0040     0.1496     0.0708     0.2649     1.9803   113.2800     0.1516     0.5327
  356    7.100   2833.83     0.2017     0.0044     0.1465     0.0710     0.2637     2.1816   113.6000     0.1501     0.5112
  357    7.120   2834.82     0.1994     0.0047     0.1425     0.0712     0.2592     2.3302   113.9200     0.1453     0.4892
  358    7.140   2835.81     0.1896     0.0049     0.1463     0.0714     0.2503     2.5513   114.2400     0.1361     0.5385
  359    7.160   2836.81     0.1812     0.0052     0.1490     0.0716     0.2441     2.8172   114.5600     0.1295     0.6036
  360    7.180   2837.79     0.1838     0.0051     0.1492     0.0718     0.2456     2.7678   114.8800     0.1307     0.5760
  361    7.200   2838.77     0.1845     0.0049     0.1570     0.0720     0.2493     2.6527   115.2000     0.1341     0.6137
  362    7.220   2839.75     0.1843     0.0045     0.1619     0.0722     0.2518     2.4743   115.5200     0.1363     0.6503
  363    7.240   2840.72     0.1870     0.0042     0.1634     0.0724     0.2556     2.2510   115.8400     0.1398     0.6498
  364    7.260   2841.71     0.1887     0.0040     0.1658     0.0726     0.2577     2.1336   116.1600     0.1415     0.6486
  365    7.280   2842.66     0.1910     0.0041     0.1704     0.0728     0.2620     2.1419   116.4800     0.1455     0.6614
  366    7.300   2843.70     0.1947     0.0044     0.1733     0.0730     0.2670     2.2547   116.8000     0.1502     0.6597
  367    7.320   2844.70     0.1991     0.0041     0.1740     0.0732     0.2728     2.0868   117.1200     0.1557     0.6569
  368    7.340   2845.68     0.2029     0.0045     0.1593     0.0734     0.2721     2.1965   117.4400     0.1547     0.5910
  369    7.360   2846.65     0.2043     0.0043     0.1518     0.0736     0.2684     2.1215   117.7600     0.1506     0.5241
  370    7.380   2847.63     0.2041     0.0048     0.1515     0.0738     0.2676     2.3437   118.0800     0.1496     0.5186
  371    7.400   2848.65     0.2003     0.0050     0.1578     0.0740     0.2656     2.4980   118.4000     0.1472     0.5527
  372    7.420   2849.61     0.2025     0.0045     0.1648     0.0742     0.2707     2.2370   118.7200     0.1520     0.5806
  373    7.440   2850.65     0.1987     0.0045     0.1699     0.0744     0.2693     2.2378   119.0400     0.1502     0.6226
  374    7.460   2851.65     0.1993     0.0045     0.1757     0.0746     0.2722     2.2328   119.3600     0.1528     0.6475
  375    7.480   2852.67     0.2009     0.0042     0.1815     0.0748     0.2762     2.0782   119.6800     0.1566     0.6685
  376    7.500   2853.64     0.2027     0.0042     0.1843     0.0750     0.2801     2.0512   120.0000     0.1601     0.6827
  377    7.520   2854.63     0.2078     0.0041     0.1783     0.0752     0.2831     1.9669   120.3200     0.1628     0.6389
  378    7.540   2855.62     0.2079     0.0042     0.1834     0.0754     0.2842     2.0447   120.6400     0.1636     0.6498
  379    7.560   2856.61     0.2086     0.0043     0.1852     0.0756     0.2864     2.0793   120.9600     0.1654     0.6626
  380    7.580   2857.59     0.2117     0.0042     0.1736     0.0758     0.2865     2.0127   121.2800     0.1652     0.6185
  381    7.600   2858.63     0.2101     0.0045     0.1703     0.0760     0.2823     2.1008   121.6000     0.1607     0.5961
  382    7.620   2859.60     0.2089     0.0047     0.1667     0.0762     0.2794     2.2322   121.9200     0.1574     0.5817
  383    7.640   2860.54     0.2116     0.0046     0.1668     0.0764     0.2821     2.1847   122.2400     0.1598     0.5713
  384    7.660   2861.57     0.2091     0.0042     0.1771     0.0766     0.2821     2.0223   122.5600     0.1596     0.6104
  385    7.680   2862.54     0.2093     0.0037     0.1846     0.0768     0.2858     1.7762   122.8800     0.1629     0.6474
  386    7.700   2863.55     0.2095     0.0039     0.1921     0.0770     0.2893     1.8659   123.2000     0.1661     0.6801
  387    7.720   2864.55     0.2148     0.0042     0.1950     0.0772     0.2959     1.9783   123.5200     0.1724     0.6728
  388    7.740   2865.52     0.2265     0.0043     0.1970     0.0774     0.3085     1.9051   123.8400     0.1847     0.6381
  389    7.760   2866.54     0.2451     0.0049     0.1902     0.0776     0.3267     2.0392   124.1600     0.2025     0.5767
  390    7.780   2867.52     0.2599     0.0053     0.1727     0.0778     0.3335     2.0475   124.4800     0.2091     0.4670
  391    7.800   2868.51     0.2668     0.0059     0.1637     0.0780     0.3359     2.2008   124.8000     0.2111     0.4101
  392    7.820   2869.49     0.2723     0.0063     0.1628     0.0782     0.3407     2.3156   125.1200     0.2156     0.3931
  393    7.840   2870.49     0.2704     0.0066     0.1626     0.0784     0.3388     2.4228   125.4400     0.2134     0.3955
  394    7.860   2871.50     0.2660     0.0067     0.1624     0.0786     0.3343     2.5010   125.7600     0.2085     0.4025
  395    7.880   2872.49     0.2644     0.0066     0.1646     0.0788     0.3327     2.4961   126.0800     0.2066     0.4064
  396    7.900   2873.49     0.2606     0.0061     0.1701     0.0790     0.3310     2.3249   126.4000     0.2046     0.4332
  397    7.920   2874.46     0.2536     0.0061     0.1742     0.0792     0.3260     2.4071   126.7200     0.1993     0.4677
  398    7.940   2875.47     0.2550     0.0059     0.1753     0.0794     0.3286     2.3211   127.0400     0.2016     0.4757
  399    7.960   2876.50     0.2515     0.0057     0.1766     0.0796     0.3257     2.2705   127.3600     0.1983     0.4896
  400    7.980   2877.46     0.2457     0.0058     0.1743     0.0798     0.3193     2.3508   127.6800     0.1916     0.4980
  401    8.000   2878.46     0.2446     0.0059     0.1580     0.0800     0.3129     2.4146   128.0000     0.1849     0.4460
  402    8.020   2879.46     0.2374     0.0057     0.1627     0.0802     0.3041     2.3728   128.3200     0.1758     0.4466
  403    8.040   2880.46     0.2288     0.0058     0.1713     0.0804     0.2997     2.5384   128.6400     0.1711     0.5173
  404    8.060   2881.43     0.2235     0.0054     0.1801     0.0806     0.2978     2.3882   128.9600     0.1688     0.5709
  405    8.080   2882.48     0.2202     0.0051     0.1895     0.0808     0.2986     2.3286   129.2800     0.1693     0.6241
  406    8.100   2883.43     0.2234     0.0050     0.1964     0.0810     0.3050     2.2642   129.6000     0.1754     0.6451
  407    8.120   2884.44     0.2340     0.0050     0.2046     0.0812     0.3189     2.1767   129.9200     0.1890     0.6407
  408    8.140   2885.43     0.2460     0.0052     0.2042     0.0814     0.3327     2.1210   130.2400     0.2024     0.6178
  409    8.160   2886.37     0.2559     0.0053     0.1992     0.0816     0.3402     2.0720   130.5600     0.2097     0.5684
  410    8.180   2887.34     0.2686     0.0057     0.1813     0.0818     0.3485     2.1296   130.8800     0.2176     0.4982
  411    8.200   2888.39     0.2753     0.0058     0.1816     0.0820     0.3514     2.1260   131.2000     0.2202     0.4510
  412    8.220   2889.35     0.2851     0.0054     0.1836     0.0822     0.3640     1.9023   131.5200     0.2325     0.4544
  413    8.240   2890.32     0.2994     0.0058     0.1842     0.0824     0.3770     1.9271   131.8400     0.2451     0.4172
  414    8.260   2891.29     0.3058     0.0060     0.1842     0.0826     0.3824     2.0390   132.1600     0.2503     0.3991
  415    8.280   2892.33     0.2919     0.0061     0.1870     0.0828     0.3699     2.1168   132.4800     0.2374     0.4330
  416    8.300   2893.33     0.2796     0.0062     0.1859     0.0830     0.3590     2.1940   132.8000     0.2262     0.4692
  417    8.320   2894.30     0.2810     0.0064     0.1711     0.0832     0.3553     2.2826   133.1200     0.2222     0.4218
  418    8.340   2895.33     0.2840     0.0068     0.1694     0.0834     0.3537     2.4106   133.4400     0.2202     0.3747
  419    8.360   2910.49     0.2806     0.0070     0.1710     0.0836     0.3525     2.4691   133.7600     0.2188     0.4010
  420    8.380   2942.19     0.2784     0.0067     0.1702     0.0838     0.3500     2.3790   134.0800     0.2160     0.4013
  421    8.400   2973.89     0.2763     0.0060     0.1701     0.0840     0.3476     2.1359   134.4000     0.2132     0.4016
  422    8.420   2983.58     0.2715     0.0063     0.1855     0.0842     0.3471     2.2998   134.7200     0.2124     0.4512
  423    8.440   2984.59     0.2633     0.0060     0.1953     0.0844     0.3430     2.2580   135.0400     0.2080     0.5068
  424    8.460   2985.60     0.2614     0.0055     0.2078     0.0846     0.3473     2.1216   135.3600     0.2119     0.5656
  425    8.480   2986.57     0.2672     0.0059     0.2084     0.0848     0.3543     2.2035   135.6800     0.2186     0.5604
  426    8.500   2987.59     0.2805     0.0053     0.2047     0.0850     0.3660     1.9167   136.0000     0.2300     0.5159
  427    8.520   2988.57     0.2840     0.0056     0.2094     0.0852     0.3712     1.9630   136.3200     0.2349     0.5212
  428    8.540   2989.53     0.2846     0.0058     0.2138     0.0854     0.3721     2.0178   136.6400     0.2355     0.5225
  429    8.560   2990.50     0.2846     0.0056     0.2000     0.0856     0.3723     1.9743   136.9600     0.2354     0.5237
  430    8.580   2991.56     0.2866     0.0054     0.2120     0.0858     0.3751     1.8792   137.2800     0.2378     0.5247
  431    8.600   2992.53     0.2857     0.0058     0.2110     0.0860     0.3753     2.0119   137.6000     0.2377     0.5359
  432    8.620   2993.50     0.2811     0.0055     0.2136     0.0862     0.3717     1.9477   137.9200     0.2338     0.5540
  433    8.640   2994.48     0.2782     0.0054     0.2225     0.0864     0.3703     1.9460   138.2400     0.2320     0.5719
  434    8.660   2995.46     0.2805     0.0055     0.2312     0.0866     0.3761     1.9625   138.5600     0.2375     0.5938
  435    8.680   2996.43     0.2852     0.0053     0.2279     0.0868     0.3825     1.8743   138.8800     0.2436     0.5952
  436    8.700   2997.46     0.2821     0.0054     0.2293     0.0870     0.3774     1.8949   139.2000     0.2382     0.5876
  437    8.720   2998.43     0.2834     0.0055     0.2280     0.0872     0.3777     1.9642   139.5200     0.2381     0.5765
  438    8.740   2999.39     0.2912     0.0050     0.2204     0.0874     0.3835     1.7388   139.8400     0.2437     0.5436
  439    8.760   3000.36     0.2872     0.0049     0.2297     0.0876     0.3821     1.6963   140.1600     0.2420     0.5718
  440    8.780   3001.34     0.2776     0.0051     0.2326     0.0878     0.3750     1.8374   140.4800     0.2345     0.6143
  441    8.800   3002.32     0.2804     0.0049     0.2323     0.0880     0.3770     1.7572   140.8000     0.2362     0.6016
  442    8.820   3003.33     0.2863     0.0046     0.2396     0.0882     0.3855     1.6023   141.1200     0.2444     0.6059
  443    8.840   3004.35     0.3040     0.0046     0.2378     0.0884     0.4045     1.5240   141.4400     0.2631     0.5733
  444    8.860   3005.33     0.3045     0.0046     0.2296     0.0886     0.4022     1.5188   141.7600     0.2604     0.5528
  445    8.880   3006.28     0.3149     0.0048     0.2201     0.0888     0.4084     1.5239   142.0800     0.2663     0.5025
  446    8.900   3007.33     0.3393     0.0047     0.2240     0.0890     0.4317     1.3909   142.4000     0.2893     0.4532
  447    8.920   3008.30     0.3628     0.0049     0.2261     0.0892     0.4595     1.3512   142.7200     0.3168     0.4454
  448    8.940   3009.30     0.3900     0.0053     0.2125     0.0894     0.4812     1.3507   143.0400     0.3382     0.3780
  449    8.960   3010.34     0.3865     0.0052     0.1959     0.0896     0.4685     1.3431   143.3600     0.3251     0.3246
  450    8.980   3011.33     0.3572     0.0053     0.2048     0.0898     0.4419     1.4513   143.6800     0.2982     0.3748
  451    9.000   3012.34     0.3301     0.0052     0.2063     0.0900     0.4164     1.5554   144.0000     0.2724     0.4238
  452    9.020   3013.29     0.3055     0.0051     0.2070     0.0902     0.3916     1.6405   144.3200     0.2473     0.4645
  453    9.040   3014.31     0.2730     0.0049     0.2175     0.0904     0.3632     1.7225   144.6400     0.2186     0.5695
  454    9.060   3015.29     0.2584     0.0046     0.2317     0.0906     0.3535     1.7723   144.9600     0.2085     0.6507
  455    9.080   3016.25     0.2604     0.0044     0.2464     0.0908     0.3619     1.6966   145.2800     0.2166     0.6961
  456    9.100   3017.25     0.2710     0.0045     0.2553     0.0910     0.3774     1.6792   145.6000     0.2318     0.7006
  457    9.120   3018.20     0.2860     0.0047     0.2555     0.0912     0.3939     1.6376   145.9200     0.2479     0.6678
  458    9.140   3019.18     0.3020     0.0045     0.2486     0.0914     0.4072     1.4931   146.2400     0.2610     0.6102
  459    9.160   3020.18     0.3165     0.0046     0.2389     0.0916     0.4185     1.4762   146.5600     0.2720     0.5568
  460    9.180   3021.17     0.3421     0.0048     0.2249     0.0918     0.4377     1.4291   146.8800     0.2908     0.4673
  461    9.200   3022.14     0.3325     0.0054     0.2314     0.0920     0.4290     1.5934   147.2000     0.2818     0.4897
  462    9.220   3023.16     0.3085     0.0055     0.2362     0.0922     0.4065     1.7893   147.5200     0.2590     0.5447
  463    9.240   3024.09     0.3543     0.0055     0.2454     0.0924     0.4563     1.5948   147.8400     0.3085     0.4893
  464    9.260   3025.06     0.4062     0.0049     0.2392     0.0926     0.5086     1.2234   148.1600     0.3604     0.4199
  465    9.280   3026.08     0.4279     0.0048     0.2211     0.0928     0.5242     1.1282   148.4800     0.3757     0.3633
  466    9.300   3027.10     0.4243     0.0055     0.2190     0.0930     0.5160     1.2960   148.8000     0.3672     0.3415
  467    9.320   3028.11     0.4348     0.0054     0.2171     0.0932     0.5264     1.2488   149.1200     0.3773     0.3306
  468    9.340   3029.08     0.4311     0.0051     0.2204     0.0934     0.5229     1.1732   149.4400     0.3735     0.3358
  469    9.360   3030.04     0.4045     0.0050     0.2252     0.0936     0.4982     1.2343   149.7600     0.3484     0.3717
  470    9.380   3031.02     0.3987     0.0051     0.2178     0.0938     0.4922     1.2733   150.0800     0.3421     0.3764
  471    9.400   3031.99     0.3713     0.0055     0.2314     0.0940     0.4663     1.4606   150.4000     0.3159     0.4190
  472    9.420   3033.03     0.3572     0.0057     0.2493     0.0942     0.4598     1.6109   150.7200     0.3090     0.4854
  473    9.440   3034.04     0.3831     0.0052     0.2484     0.0944     0.4889     1.3617   151.0400     0.3379     0.4663
  474    9.460   3035.06     0.4057     0.0047     0.2387     0.0946     0.5058     1.1788   151.3600     0.3544     0.4055
  475    9.480   3036.04     0.4051     0.0046     0.2309     0.0948     0.5036     1.1341   151.6800     0.3520     0.3972
  476    9.500   3037.04     0.3979     0.0049     0.2274     0.0950     0.4940     1.2181   152.0000     0.3420     0.3917
  477    9.520   3037.99     0.3844     0.0052     0.2317     0.0952     0.4809     1.3419   152.3200     0.3286     0.4102
  478    9.540   3038.98     0.3820     0.0050     0.2332     0.0954     0.4798     1.3158   152.6400     0.3271     0.4196
  479    9.560   3040.01     0.3949     0.0058     0.2406     0.0956     0.4948     1.4713   152.9600     0.3418     0.4160
  480    9.580   3040.99     0.4138     0.0061     0.2281     0.0958     0.5135     1.4874   153.2800     0.3602     0.3932
  481    9.600   3041.98     0.4442     0.0058     0.2108     0.0960     0.5350     1.3217   153.6000     0.3814     0.3155
  482    9.620   3042.98     0.4584     0.0059     0.1980     0.0962     0.5432     1.2795   153.9200     0.3893     0.2720
  483    9.640   3043.91     0.4367     0.0061     0.1820     0.0964     0.5152     1.3729   154.2400     0.3610     0.2508
  484    9.660   3044.91     0.4125     0.0055     0.1722     0.0966     0.4850     1.3158   154.5600     0.3304     0.2297
  485    9.680   3045.91     0.3755     0.0057     0.1800     0.0968     0.4503     1.4855   154.8800     0.2955     0.2760
  486    9.700   3046.89     0.3523     0.0049     0.1905     0.0970     0.4307     1.3939   155.2000     0.2755     0.3260
  487    9.720   3047.89     0.3614     0.0049     0.1982     0.0972     0.4435     1.3648   155.5200     0.2880     0.3410
  488    9.740   3048.90     0.3476     0.0048     0.2042     0.0974     0.4324     1.3547   155.8400     0.2765     0.3783
  489    9.760   3049.87     0.3389     0.0049     0.2031     0.0976     0.4258     1.4445   156.1600     0.2696     0.4058
  490    9.780   3050.85     0.3428     0.0049     0.2013     0.0978     0.4268     1.4174   156.4800     0.2704     0.3780
  491    9.800   3051.85     0.3320     0.0053     0.2043     0.0980     0.4173     1.5886   156.8000     0.2605     0.4040
  492    9.820   3052.85     0.3318     0.0053     0.2090     0.0982     0.4185     1.5901   157.1200     0.2613     0.4136
  493    9.840   3053.87     0.3247     0.0053     0.2041     0.0984     0.4123     1.6113   157.4400     0.2549     0.4326
  494    9.860   3054.85     0.2991     0.0052     0.2036     0.0986     0.3848     1.7221   157.7600     0.2271     0.4648
  495    9.880   3055.87     0.2894     0.0048     0.2000     0.0988     0.3739     1.6638   158.0800     0.2158     0.4741
  496    9.900   3056.86     0.2793     0.0048     0.2068     0.0990     0.3639     1.7154   158.4000     0.2055     0.4988
  497    9.920   3057.86     0.2985     0.0045     0.2195     0.0992     0.3885     1.5074   158.7200     0.2298     0.5006
  498    9.940   3058.85     0.3132     0.0043     0.2237     0.0994     0.4079     1.3834   159.0400     0.2488     0.5067
  499    9.960   3059.87     0.3271     0.0050     0.2167     0.0996     0.4194     1.5565   159.3600     0.2600     0.4619
  500    9.980   3060.88     0.3492     0.0048     0.2161     0.0998     0.4407     1.4103   159.6800     0.2810     0.4205
  501   10.000   3061.86     0.3875     0.0055     0.2169     0.1000     0.4784     1.4520   160.0000     0.3184     0.3654
  502   10.020   3062.83     0.4098     0.0055     0.2048     0.1002     0.4977     1.3544   160.3200     0.3374     0.3233
  503   10.040   3063.82     0.3880     0.0055     0.1905     0.1004     0.4695     1.4043   160.6400     0.3088     0.3027
  504   10.060   3064.84     0.3401     0.0055     0.1836     0.1006     0.4178     1.5645   160.9600     0.2569     0.3287
  505   10.080   3065.81     0.3000     0.0054     0.1933     0.1008     0.3791     1.7749   161.2800     0.2178     0.4026
  506   10.100   3066.82     0.2741     0.0058     0.2064     0.1010     0.3592     2.0828   161.6000     0.1976     0.5145
  507   10.120   3067.82     0.2862     0.0061     0.2179     0.1012     0.3762     2.1471   161.9200     0.2143     0.5277
  508   10.140   3068.80     0.3227     0.0056     0.2273     0.1014     0.4171     1.7832   162.2400     0.2548     0.4837
  509   10.160   3069.78     0.3404     0.0057     0.2292     0.1016     0.4374     1.7499   162.5600     0.2748     0.4706
  510   10.180   3070.78     0.3558     0.0058     0.2128     0.1018     0.4482     1.7875   162.8800     0.2853     0.4143
  511   10.200   3071.76     0.3330     0.0059     0.2047     0.1020     0.4194     1.8252   163.2000     0.2562     0.4050
  512   10.220   3072.77     0.3197     0.0061     0.2057     0.1022     0.4055     1.9144   163.5200     0.2420     0.4214
  513   10.240   3073.75     0.3268     0.0065     0.2188     0.1024     0.4166     1.9936   163.8400     0.2528     0.4410
  514   10.260   3083.90     0.3446     0.0068     0.2163     0.1026     0.4368     2.0081   164.1600     0.2727     0.4320
  515   10.280   3110.49     0.3646     0.0068     0.2071     0.1028     0.4529     2.0101   164.4800     0.2884     0.3808
  516   10.300   3137.08     0.3845     0.0072     0.1979     0.1030     0.4689     2.1238   164.8000     0.3041     0.3296
  517   10.320   3163.67     0.4044     0.0070     0.1914     0.1032     0.4850     1.8842   165.1200     0.3198     0.2784
  518   10.340   3169.36     0.3465     0.0067     0.2074     0.1034     0.4315     1.9283   165.4400     0.2661     0.3813
  519   10.360   3170.77     0.3968     0.0059     0.2126     0.1036     0.4854     1.4913   165.7600     0.3197     0.3361
  520   10.380   3171.76     0.3904     0.0065     0.2196     0.1038     0.4817     1.6562   166.0800     0.3156     0.3601
  521   10.400   3172.76     0.3806     0.0061     0.2246     0.1040     0.4738     1.5946   166.4000     0.3074     0.3842
  522   10.420   3173.76     0.3594     0.0059     0.2326     0.1042     0.4563     1.6242   166.7200     0.2896     0.4370
  523   10.440   3174.79     0.3602     0.0060     0.2360     0.1044     0.4592     1.6734   167.0400     0.2921     0.4488
  524   10.460   3176.69     0.2988     0.0059     0.2351     0.1046     0.3969     1.8505   167.3600     0.2295     0.5640
  525   10.480   3177.74     0.3435     0.0060     0.2357     0.1048     0.4426     1.7364   167.6800     0.2750     0.4773
  526   10.500   3178.77     0.3462     0.0061     0.2401     0.1050     0.4463     1.7745   168.0000     0.2783     0.4791
  527   10.520   3179.76     0.3466     0.0059     0.2403     0.1052     0.4479     1.7021   168.3200     0.2796     0.4863
  528   10.540   3180.76     0.3394     0.0057     0.2396     0.1054     0.4402     1.6636   168.6400     0.2715     0.4953
  529   10.560   3181.72     0.3315     0.0058     0.2362     0.1056     0.4316     1.7469   168.9600     0.2626     0.5056
  530   10.580   3182.72     0.3320     0.0062     0.2303     0.1058     0.4295     1.8615   169.2800     0.2602     0.4859
  531   10.600   3183.68     0.3303     0.0058     0.2231     0.1060     0.4254     1.7207   169.6000     0.2558     0.4708
  532   10.620   3184.67     0.3245     0.0063     0.2224     0.1062     0.4167     1.9349   169.9200     0.2468     0.4597
  533   10.640   3185.69     0.3371     0.0064     0.2360     0.1064     0.4337     1.9796   170.2400     0.2635     0.4694
  534   10.660   3188.11     0.3115     0.0063     0.2437     0.1066     0.4132     2.2038   170.5600     0.2426     0.5710
  535   10.680   3189.09     0.3755     0.0062     0.2420     0.1068     0.4776     1.6347   170.8800     0.3067     0.4447
  536   10.700   3190.09     0.3586     0.0064     0.2454     0.1070     0.4616     1.7747   171.2000     0.2904     0.4759
  537   10.720   3191.03     0.3555     0.0065     0.2510     0.1072     0.4595     1.8093   171.5200     0.2880     0.4877
  538   10.740   3192.04     0.3461     0.0070     0.2438     0.1074     0.4509     2.0203   171.8400     0.2790     0.5092
  539   10.760   3193.06     0.3314     0.0063     0.2409     0.1076     0.4322     1.8739   172.1600     0.2600     0.5093
  540   10.780   3194.03     0.3171     0.0065     0.2485     0.1078     0.4202     2.0337   172.4800     0.2477     0.5552
  541   10.800   3195.05     0.3232     0.0064     0.2575     0.1080     0.4299     2.0025   172.8000     0.2571     0.5681
  542   10.820   3196.02     0.3483     0.0065     0.2686     0.1082     0.4593     1.8953   173.1200     0.2862     0.5456
  543   10.840   3196.99     0.3624     0.0068     0.2812     0.1084     0.4786     1.8850   173.4400     0.3052     0.5515
  544   10.860   3197.99     0.3810     0.0067     0.2860     0.1086     0.5011     1.7643   173.7600     0.3273     0.5417
  545   10.880   3198.96     0.3867     0.0067     0.2847     0.1088     0.5081     1.7333   174.0800     0.3340     0.5400
  546   10.900   3199.93     0.3794     0.0066     0.2847     0.1090     0.4967     1.7343   174.4000     0.3223     0.5285
  547   10.920   3200.93     0.3820     0.0065     0.2934     0.1092     0.5043     1.6937   174.7200     0.3295     0.5517
  548   10.940   3201.91     0.3826     0.0072     0.3004     0.1094     0.5076     1.8712   175.0400     0.3325     0.5659
  549   10.960   3202.98     0.3843     0.0070     0.3020     0.1096     0.5112     1.8128   175.3600     0.3359     0.5737
  550   10.980   3203.96     0.3825     0.0073     0.2923     0.1098     0.5064     1.8958   175.6800     0.3307     0.5600
  551   11.000   3204.93     0.3799     0.0073     0.2850     0.1100     0.5001     1.9294   176.0000     0.3241     0.5439
  552   11.020   3207.55     0.3021     0.0075     0.2799     0.1102     0.4213     2.4529   176.3200     0.2449     0.7180
  553   11.040   3208.86     0.3696     0.0074     0.2823     0.1104     0.4878     2.0329   176.6400     0.3111     0.5498
  554   11.060   3209.86     0.3744     0.0077     0.2847     0.1106     0.4939     2.0720   176.9600     0.3170     0.5487
  555   11.080   3210.84     0.3787     0.0078     0.2905     0.1108     0.4999     2.0576   177.2800     0.3226     0.5508
  556   11.100   3211.84     0.3745     0.0077     0.2958     0.1110     0.4980     2.0524   177.6000     0.3204     0.5713
  557   11.120   3212.89     0.3708     0.0077     0.2999     0.1112     0.4967     2.0571   177.9200     0.3187     0.5911
  558   11.140   3213.85     0.3723     0.0077     0.3009     0.1114     0.4991     2.0665   178.2400     0.3208     0.5937
  559   11.160   3214.83     0.3706     0.0079     0.3046     0.1116     0.4979     2.1369   178.5600     0.3193     0.5996
  560   11.180   3215.77     0.3689     0.0082     0.3105     0.1118     0.4985     2.2128   178.8800     0.3196     0.6158
  561   11.200   3216.80     0.3663     0.0076     0.3167     0.1120     0.4985     2.0945   179.2000     0.3193     0.6352
  562   11.220   3217.78     0.3697     0.0076     0.3148     0.1122     0.5023     2.0586   179.5200     0.3227     0.6301
  563   11.240   3218.75     0.3697     0.0080     0.3168     0.1124     0.5025     2.1593   179.8400     0.3226     0.6313
  564   11.260   3219.78     0.3673     0.0077     0.3162     0.1126     0.5006     2.1023   180.1600     0.3204     0.6386
  565   11.280   3220.76     0.3603     0.0079     0.3128     0.1128     0.4922     2.1911   180.4800     0.3117     0.6455
  566   11.300   3221.72     0.3684     0.0078     0.3015     0.1130     0.4966     2.1234   180.8000     0.3158     0.6089
  567   11.320   3222.74     0.3763     0.0076     0.2981     0.1132     0.5019     2.0290   181.1200     0.3208     0.5793
  568   11.340   3223.73     0.3777     0.0080     0.2974     0.1134     0.5027     2.1275   181.4400     0.3212     0.5733
  569   11.360   3224.72     0.3751     0.0078     0.2977     0.1136     0.4997     2.0558   181.7600     0.3180     0.5762
  570   11.380   3225.71     0.3760     0.0080     0.3026     0.1138     0.5026     2.1174   182.0800     0.3205     0.5853
  571   11.400   3226.71     0.3735     0.0083     0.3062     0.1140     0.5015     2.2267   182.4000     0.3191     0.5977
  572   11.420   3227.72     0.3761     0.0080     0.3122     0.1142     0.5063     2.1351   182.7200     0.3236     0.6054
  573   11.440   3228.73     0.3749     0.0082     0.3160     0.1144     0.5071     2.1763   183.0400     0.3241     0.6187
  574   11.460   3229.71     0.3733     0.0083     0.3150     0.1146     0.5054     2.2385   183.3600     0.3220     0.6204
  575   11.480   3230.69     0.3720     0.0085     0.3140     0.1148     0.5039     2.2747   183.6800     0.3203     0.6227
  576   11.500   3231.68     0.3672     0.0085     0.3106     0.1150     0.4987     2.3039   184.0000     0.3147     0.6291
  577   11.520   3232.68     0.3717     0.0084     0.3039     0.1152     0.4995     2.2743   184.3200     0.3152     0.6002
  578   11.540   3233.70     0.3766     0.0085     0.3114     0.1154     0.5064     2.2726   184.6400     0.3217     0.6014
  579   11.560   3234.68     0.3812     0.0085     0.3137     0.1156     0.5129     2.2341   184.9600     0.3279     0.6036
  580   11.580   3235.68     0.3856     0.0089     0.3156     0.1158     0.5175     2.3074   185.2800     0.3323     0.5967
  581   11.600   3236.70     0.3887     0.0089     0.3223     0.1160     0.5233     2.3059   185.6000     0.3377     0.6052
  582   11.620   3237.66     0.3931     0.0089     0.3276     0.1162     0.5299     2.2665   185.9200     0.3440     0.6090
  583   11.640   3238.62     0.3967     0.0091     0.3297     0.1164     0.5352     2.3102   186.2400     0.3489     0.6112
  584   11.660   3239.62     0.4001     0.0092     0.3269     0.1166     0.5380     2.2922   186.5600     0.3515     0.6024
  585   11.680   3240.62     0.4014     0.0092     0.3216     0.1168     0.5373     2.2927   186.8800     0.3504     0.5900
  586   11.700   3241.59     0.4040     0.0094     0.3200     0.1170     0.5380     2.3333   187.2000     0.3508     0.5759
  587   11.720   3242.57     0.4069     0.0097     0.3206     0.1172     0.5415     2.3988   187.5200     0.3540     0.5743
  588   11.740   3243.56     0.4030     0.0098     0.3235     0.1174     0.5383     2.4357   187.8400     0.3505     0.5840
  589   11.760   3244.53     0.4090     0.0101     0.3232     0.1176     0.5450     2.4616   188.1600     0.3568     0.5777
  590   11.780   3245.53     0.4095     0.0100     0.3252     0.1178     0.5459     2.4474   188.4800     0.3574     0.5789
  591   11.800   3246.53     0.4179     0.0098     0.3317     0.1180     0.5556     2.3438   188.8000     0.3668     0.5725
  592   11.820   3247.52     0.4210     0.0098     0.3358     0.1182     0.5613     2.3378   189.1200     0.3722     0.5803
  593   11.840   3248.49     0.4259     0.0101     0.3425     0.1184     0.5689     2.3763   189.4400     0.3794     0.5852
  594   11.860   3249.48     0.4282     0.0101     0.3441     0.1186     0.5726     2.3532   189.7600     0.3829     0.5884
  595   11.880   3250.50     0.4301     0.0102     0.3429     0.1188     0.5742     2.3994   190.0800     0.3841     0.5840
  596   11.900   3251.48     0.4276     0.0105     0.3430     0.1190     0.5720     2.4521   190.4000     0.3816     0.5894
  597   11.920   3252.49     0.4287     0.0106     0.3390     0.1192     0.5719     2.4659   190.7200     0.3812     0.5817
  598   11.940   3253.46     0.4263     0.0109     0.3376     0.1194     0.5683     2.5491   191.0400     0.3773     0.5800
  599   11.960   3254.48     0.4253     0.0108     0.3384     0.1196     0.5676     2.5437   191.3600     0.3762     0.5826
  600   11.980   3255.48     0.4237     0.0107     0.3409     0.1198     0.5664     2.5147   191.6800     0.3747     0.5871
  601   12.000   3256.45     0.4273     0.0105     0.3428     0.1200     0.5713     2.4556   192.0000     0.3793     0.5874
  602   12.020   3257.43     0.4225     0.0105     0.3441     0.1202     0.5668     2.4862   192.3200     0.3745     0.5965
  603   12.040   3258.41     0.4299     0.0105     0.3441     0.1204     0.5741     2.4450   192.6400     0.3814     0.5839
  604   12.060   3259.38     0.4322     0.0108     0.3410     0.1206     0.5757     2.4943   192.9600     0.3828     0.5774
  605   12.080   3260.41     0.4367     0.0087     0.3390     0.1208     0.5792     2.0106   193.2800     0.3859     0.5659
  606   12.100   3261.43     0.4365     0.0109     0.3396     0.1210     0.5792     2.5108   193.6000     0.3856     0.5672
  607   12.120   3262.37     0.4385     0.0112     0.3393     0.1212     0.5796     2.5799   193.9200     0.3857     0.5570
  608   12.140   3263.35     0.4353     0.0119     0.3448     0.1214     0.5791     2.7242   194.2400     0.3849     0.5744
  609   12.160   3264.34     0.4300     0.0109     0.3443     0.1216     0.5750     2.5145   194.5600     0.3804     0.5877
  610   12.180   3267.03     0.3552     0.0106     0.3511     0.1218     0.5025     2.8880   194.8800     0.3076     0.7446
  611   12.200   3268.06     0.4318     0.0105     0.3507     0.1220     0.5784     2.5709   195.2000     0.3832     0.5929
  612   12.220   3277.63     0.4273     0.0110     0.3499     0.1222     0.5748     2.5767   195.5200     0.3792     0.6036
  613   12.240   3322.54     0.4304     0.0108     0.3465     0.1224     0.5765     2.5276   195.8400     0.3806     0.5920
  614   12.260   3343.44     0.4348     0.0105     0.3465     0.1226     0.5797     2.4309   196.1600     0.3836     0.5798
  615   12.280   3344.40     0.4387     0.0105     0.3467     0.1228     0.5845     2.3949   196.4800     0.3880     0.5781
  616   12.300   3345.38     0.4367     0.0106     0.3482     0.1230     0.5824     2.4256   196.8000     0.3856     0.5811
  617   12.320   3346.38     0.4275     0.0103     0.3481     0.1232     0.5733     2.3989   197.1200     0.3762     0.5958
  618   12.340   3347.33     0.4266     0.0101     0.3502     0.1234     0.5737     2.3633   197.4400     0.3763     0.6029
  619   12.360   3348.38     0.4265     0.0101     0.3533     0.1236     0.5748     2.3571   197.7600     0.3770     0.6087
  620   12.380   3349.38     0.4232     0.0102     0.3521     0.1238     0.5720     2.4019   198.0800     0.3740     0.6166
  621   12.400   3350.33     0.4274     0.0104     0.3506     0.1240     0.5745     2.4413   198.4000     0.3761     0.6019
  622   12.420   3351.38     0.4299     0.0106     0.3454     0.1242     0.5762     2.4606   198.7200     0.3775     0.5934
  623   12.440   3352.38     0.4218     0.0107     0.3390     0.1244     0.5650     2.5295   199.0400     0.3660     0.5916
  624   12.460   3353.36     0.4246     0.0107     0.3356     0.1246     0.5657     2.5192   199.3600     0.3663     0.5769
  625   12.480   3354.34     0.4289     0.0104     0.3345     0.1248     0.5695     2.4428   199.6800     0.3698     0.5681
  626   12.500   3355.31     0.4279     0.0101     0.3342     0.1250     0.5686     2.3643   200.0000     0.3686     0.5698
  627   12.520   3356.31     0.4159     0.0099     0.3300     0.1252     0.5545     2.3347   200.3200     0.3542     0.5786
  628   12.540   3357.30     0.4229     0.0098     0.3272     0.1254     0.5604     2.3514   200.6400     0.3598     0.5617
  629   12.560   3358.27     0.4227     0.0098     0.3209     0.1256     0.5584     2.3126   200.9600     0.3574     0.5524
  630   12.580   3359.27     0.4131     0.0100     0.3226     0.1258     0.5489     2.4027   201.2800     0.3476     0.5684
  631   12.600   3360.25     0.4160     0.0103     0.3173     0.1260     0.5500     2.4986   201.6000     0.3484     0.5543
  632   12.620   3361.22     0.4236     0.0104     0.3174     0.1262     0.5564     2.4696   201.9200     0.3545     0.5359
  633   12.640   3362.23     0.4198     0.0109     0.3204     0.1264     0.5540     2.5899   202.2400     0.3517     0.5488
  634   12.660   3363.24     0.4416     0.0114     0.3180     0.1266     0.5751     2.5975   202.5600     0.3726     0.5136
  635   12.680   3364.18     0.4459     0.0117     0.3229     0.1268     0.5811     2.6288   202.8800     0.3783     0.5163
  636   12.700   3365.16     0.4544     0.0121     0.3242     0.1270     0.5899     2.6780   203.2000     0.3867     0.5059
  637   12.720   3366.15     0.4604     0.0120     0.3254     0.1272     0.5972     2.6159   203.5200     0.3937     0.5041
  638   12.740   3367.14     0.4605     0.0120     0.3327     0.1274     0.5983     2.6094   203.8400     0.3945     0.5087
  639   12.760   3368.16     0.4574     0.0122     0.3407     0.1276     0.5995     2.6652   204.1600     0.3953     0.5331
  640   12.780   3369.17     0.4542     0.0116     0.3466     0.1278     0.5987     2.5724   204.4800     0.3942     0.5484
  641   12.800   3370.12     0.4562     0.0116     0.3497     0.1280     0.6031     2.5427   204.8000     0.3983     0.5569
  642   12.820   3371.10     0.4536     0.0118     0.3542     0.1282     0.6013     2.5904   205.1200     0.3962     0.5639
  643   12.840   3372.11     0.4516     0.0117     0.3607     0.1284     0.6021     2.5850   205.4400     0.3967     0.5800
  644   12.860   3373.07     0.4480     0.0118     0.3620     0.1286     0.6004     2.6279   205.7600     0.3946     0.5933
  645   12.880   3374.08     0.4439     0.0110     0.3664     0.1288     0.5975     2.4879   206.0800     0.3915     0.6052
  646   12.900   3375.10     0.4568     0.0107     0.3625     0.1290     0.6096     2.3470   206.4000     0.4032     0.5821
  647   12.920   3376.10     0.4532     0.0113     0.3615     0.1292     0.6051     2.4690   206.7200     0.3984     0.5836
  648   12.940   3377.10     0.4682     0.0114     0.3540     0.1294     0.6181     2.4524   207.0400     0.4110     0.5534
  649   12.960   3378.07     0.4655     0.0113     0.3622     0.1296     0.6145     2.4128   207.3600     0.4072     0.5531
  650   12.980   3379.06     0.4621     0.0116     0.3542     0.1298     0.6138     2.4992   207.6800     0.4061     0.5696
  651   13.000   3380.03     0.4596     0.0115     0.3513     0.1300     0.6079     2.5144   208.0000     0.3999     0.5576
  652   13.020   3381.01     0.4583     0.0118     0.3583     0.1302     0.6087     2.5644   208.3200     0.4003     0.5687
  653   13.040   3382.03     0.4578     0.0116     0.3596     0.1304     0.6087     2.5275   208.6400     0.4001     0.5719
  654   13.060   3383.00     0.4539     0.0116     0.3653     0.1306     0.6068     2.5543   208.9600     0.3978     0.5865
  655   13.080   3384.03     0.4538     0.0108     0.3705     0.1308     0.6085     2.3833   209.2800     0.3993     0.5951
  656   13.100   3384.98     0.4529     0.0109     0.3759     0.1310     0.6102     2.4133   209.6000     0.4006     0.6076
  657   13.120   3385.98     0.4577     0.0115     0.3785     0.1312     0.6167     2.5123   209.9200     0.4067     0.6081
  658   13.140   3386.93     0.4664     0.0115     0.3799     0.1314     0.6246     2.4899   210.2400     0.4144     0.5923
  659   13.160   3387.88     0.4803     0.0113     0.3819     0.1316     0.6405     2.3682   210.5600     0.4300     0.5814
  660   13.180   3388.90     0.4697     0.0112     0.3639     0.1318     0.6271     2.3848   210.8800     0.4163     0.5838
  661   13.200   3389.92     0.4694     0.0109     0.3622     0.1320     0.6205     2.3283   211.2000     0.4093     0.5565
  662   13.220   3390.89     0.4622     0.0111     0.3732     0.1322     0.6185     2.4101   211.5200     0.4070     0.5896
  663   13.240   3391.87     0.4620     0.0112     0.3763     0.1324     0.6196     2.4312   211.8400     0.4078     0.5955
  664   13.260   3392.84     0.4643     0.0112     0.3751     0.1326     0.6221     2.4209   212.1600     0.4099     0.5928
  665   13.280   3393.81     0.4625     0.0110     0.3709     0.1328     0.6182     2.3850   212.4800     0.4057     0.5859
  666   13.300   3394.84     0.4622     0.0114     0.3683     0.1330     0.6163     2.4623   212.8000     0.4035     0.5795
  667   13.320   3395.84     0.4650     0.0113     0.3686     0.1332     0.6195     2.4356   213.1200     0.4064     0.5774
  668   13.340   3396.86     0.4616     0.0116     0.3697     0.1334     0.6177     2.4999   213.4400     0.4042     0.5896
  669   13.360   3397.82     0.4621     0.0115     0.3744     0.1336     0.6191     2.4838   213.7600     0.4054     0.5927
  670   13.380   3398.82     0.4654     0.0115     0.3705     0.1338     0.6206     2.4795   214.0800     0.4065     0.5797
  671   13.400   3399.78     0.4644     0.0114     0.3726     0.1340     0.6211     2.4587   214.4000     0.4067     0.5878
  672   13.420   3400.80     0.4573     0.0111     0.3733     0.1342     0.6137     2.4222   214.7200     0.3990     0.5970
  673   13.440   3401.80     0.4585     0.0110     0.3762     0.1344     0.6158     2.4060   215.0400     0.4008     0.5994
  674   13.460   3402.82     0.4670     0.0117     0.3818     0.1346     0.6264     2.4996   215.3600     0.4110     0.5954
  675   13.480   3403.80     0.4689     0.0115     0.3836     0.1348     0.6305     2.4401   215.6800     0.4148     0.6027
  676   13.500   3404.78     0.4631     0.0117     0.3780     0.1350     0.6229     2.5164   216.0000     0.4069     0.6034
  677   13.520   3405.77     0.4701     0.0120     0.3706     0.1352     0.6262     2.5589   216.3200     0.4098     0.5768
  678   13.540   3406.76     0.4735     0.0120     0.3733     0.1354     0.6293     2.5478   216.6400     0.4127     0.5712
  679   13.560   3407.76     0.4631     0.0119     0.3810     0.1356     0.6221     2.5447   216.9600     0.4051     0.6000
  680   13.580   3408.76     0.4612     0.0119     0.3854     0.1358     0.6225     2.5682   217.2800     0.4052     0.6128
  681   13.600   3409.71     0.4617     0.0113     0.3899     0.1360     0.6248     2.4462   217.6000     0.4072     0.6195
  682   13.620   3410.72     0.4626     0.0115     0.3925     0.1362     0.6276     2.4884   217.9200     0.4097     0.6264
  683   13.640   3411.71     0.4632     0.0116     0.3925     0.1364     0.6277     2.5005   218.2400     0.4095     0.6238
  684   13.660   3412.66     0.4570     0.0119     0.3943     0.1366     0.6217     2.5818   218.5600     0.4032     0.6343
  685   13.680   3413.62     0.4605     0.0109     0.3967     0.1368     0.6271     2.3876   218.8800     0.4082     0.6363
  686   13.700   3414.61     0.4679     0.0107     0.3935     0.1370     0.6340     2.2916   219.2000     0.4148     0.6228
  687   13.720   3415.63     0.4675     0.0107     0.3914     0.1372     0.6317     2.2758   219.5200     0.4122     0.6157
  688   13.740   3416.64     0.4671     0.0110     0.3959     0.1374     0.6327     2.3550   219.8400     0.4128     0.6219
  689   13.760   3417.64     0.4643     0.0110     0.4009     0.1376     0.6323     2.3589   220.1600     0.4121     0.6368
  690   13.780   3418.59     0.4634     0.0108     0.3906     0.1378     0.6293     2.3404   220.4800     0.4088     0.6290
  691   13.800   3419.60     0.4572     0.0106     0.3854     0.1380     0.6193     2.2797   220.8000     0.3985     0.6224
  692   13.820   3420.55     0.4544     0.0107     0.3826     0.1382     0.6163     2.3645   221.1200     0.3952     0.6257
  693   13.840   3421.57     0.4546     0.0104     0.3867     0.1384     0.6150     2.2740   221.4400     0.3935     0.6187
  694   13.860   3422.57     0.4473     0.0098     0.3942     0.1386     0.6117     2.1855   221.7600     0.3899     0.6482
  695   13.880   3423.55     0.4430     0.0094     0.3971     0.1388     0.6097     2.1309   222.0800     0.3876     0.6659
  696   13.900   3424.56     0.4471     0.0091     0.3894     0.1390     0.6121     2.0279   222.4000     0.3897     0.6512
  697   13.920   3425.60     0.4450     0.0089     0.3863     0.1392     0.6073     2.0011   222.7200     0.3845     0.6430
  698   13.940   3426.57     0.4658     0.0090     0.3789     0.1394     0.6255     1.9413   223.0400     0.4025     0.5984
  699   13.960   3427.57     0.4713     0.0087     0.3801     0.1396     0.6314     1.8513   223.3600     0.4081     0.5919
  700   13.980   3428.58     0.4761     0.0092     0.3744     0.1398     0.6348     1.9358   223.6800     0.4112     0.5793
  701   14.000   3429.53     0.4655     0.0087     0.3779     0.1400     0.6243     1.8642   224.0000     0.4003     0.5945
  702   14.020   3430.57     0.4585     0.0086     0.3786     0.1402     0.6173     1.8676   224.3200     0.3930     0.6057
  703   14.040   3431.56     0.4514     0.0090     0.3809     0.1404     0.6100     1.9745   224.6400     0.3853     0.6155
  704   14.060   3432.57     0.4482     0.0091     0.3865     0.1406     0.6101     2.0310   224.9600     0.3851     0.6361
  705   14.080   3433.59     0.4450     0.0093     0.3941     0.1408     0.6093     2.0672   225.2800     0.3841     0.6526
  706   14.100   3434.54     0.4430     0.0097     0.3971     0.1410     0.6098     2.1791   225.6000     0.3842     0.6667
  707   14.120   3435.54     0.4433     0.0093     0.3989     0.1412     0.6104     2.1055   225.9200     0.3845     0.6676
  708   14.140   3436.53     0.4444     0.0090     0.4030     0.1414     0.6132     2.0262   226.2400     0.3869     0.6730
  709   14.160   3437.49     0.4467     0.0090     0.4088     0.1416     0.6171     2.0197   226.5600     0.3905     0.6760
  710   14.180   3438.47     0.4501     0.0088     0.4135     0.1418     0.6230     1.9429   226.8800     0.3961     0.6811
  711   14.200   3439.49     0.4627     0.0086     0.4193     0.1420     0.6382     1.8755   227.2000     0.4110     0.6708
  712   14.220   3440.48     0.4963     0.0088     0.4027     0.1422     0.6688     1.8317   227.5200     0.4413     0.6085
  713   14.240   3441.44     0.4739     0.0095     0.3878     0.1424     0.6342     1.9870   227.8400     0.4063     0.5886
  714   14.260   3444.04     0.4681     0.0099     0.3864     0.1426     0.6336     2.1088   228.1600     0.4055     0.6206
  715   14.280   3468.64     0.4907     0.0104     0.3640     0.1428     0.6468     2.2186   228.4800     0.4183     0.5500
  716   14.300   3493.23     0.5132     0.0105     0.3450     0.1430     0.6599     2.1770   228.8000     0.4311     0.4795
  717   14.320   3499.66     0.4959     0.0104     0.3632     0.1432     0.6450     2.0765   229.1200     0.4159     0.5092
  718   14.340   3500.67     0.4856     0.0109     0.3714     0.1434     0.6406     2.2388   229.4400     0.4112     0.5486
  719   14.360   3501.67     0.4793     0.0111     0.3827     0.1436     0.6385     2.3171   229.7600     0.4088     0.5759
  720   14.380   3502.64     0.4729     0.0107     0.3955     0.1438     0.6374     2.2607   230.0800     0.4073     0.6087
  721   14.400   3503.62     0.4734     0.0106     0.4052     0.1440     0.6423     2.2444   230.4000     0.4119     0.6264
  722   14.420   3504.60     0.4784     0.0113     0.4134     0.1442     0.6508     2.3772   230.7200     0.4201     0.6341
  723   14.440   3505.62     0.4883     0.0111     0.4178     0.1444     0.6634     2.2804   231.0400     0.4324     0.6304
  724   14.460   3506.63     0.4868     0.0116     0.4187     0.1446     0.6625     2.3800   231.3600     0.4312     0.6352
  725   14.480   3507.59     0.4871     0.0114     0.4188     0.1448     0.6632     2.3567   231.6800     0.4315     0.6358
  726   14.500   3508.65     0.4943     0.0117     0.4146     0.1450     0.6691     2.3783   232.0000     0.4371     0.6206
  727   14.520   3509.59     0.4943     0.0119     0.4130     0.1452     0.6680     2.4026   232.3200     0.4357     0.6159
  728   14.540   3510.58     0.5000     0.0121     0.4113     0.1454     0.6727     2.4454   232.6400     0.4401     0.6042
  729   14.560   3511.57     0.5032     0.0118     0.4106     0.1456     0.6755     2.3361   232.9600     0.4425     0.5976
  730   14.580   3512.56     0.5004     0.0120     0.4142     0.1458     0.6736     2.4025   233.2800     0.4404     0.6055
  731   14.600   3513.54     0.5069     0.0120     0.4182     0.1460     0.6820     2.3849   233.6000     0.4484     0.6041
  732   14.620   3514.53     0.5053     0.0117     0.4170     0.1462     0.6809     2.3227   233.9200     0.4470     0.6084
  733   14.640   3515.53     0.5062     0.0119     0.4192     0.1464     0.6814     2.3554   234.2400     0.4472     0.6055
  734   14.660   3516.48     0.5113     0.0123     0.4171     0.1466     0.6863     2.4045   234.5600     0.4517     0.5979
  735   14.680   3517.47     0.5082     0.0127     0.4210     0.1468     0.6845     2.4910   234.8800     0.4496     0.6068
  736   14.700   3518.43     0.5114     0.0125     0.4170     0.1470     0.6869     2.4432   235.2000     0.4517     0.5993
  737   14.720   3519.47     0.5014     0.0125     0.4184     0.1472     0.6769     2.4905   235.5200     0.4414     0.6134
  738   14.740   3520.44     0.4994     0.0124     0.4219     0.1474     0.6763     2.4935   235.8400     0.4404     0.6215
  739   14.760   3521.44     0.4973     0.0120     0.4287     0.1476     0.6760     2.4117   236.1600     0.4398     0.6317
  740   14.780   3522.44     0.4970     0.0116     0.4347     0.1478     0.6786     2.3346   236.4800     0.4421     0.6434
  741   14.800   3523.42     0.4972     0.0118     0.4376     0.1480     0.6797     2.3826   236.8000     0.4429     0.6469
  742   14.820   3524.40     0.5015     0.0116     0.4452     0.1482     0.6875     2.3032   237.1200     0.4504     0.6543
  743   14.840   3525.37     0.5012     0.0116     0.4428     0.1484     0.6877     2.3123   237.4400     0.4503     0.6564
  744   14.860   3526.34     0.5091     0.0116     0.4464     0.1486     0.6967     2.2844   237.7600     0.4589     0.6495
  745   14.880   3527.38     0.5078     0.0117     0.4431     0.1488     0.6951     2.3034   238.0800     0.4570     0.6501
  746   14.900   3528.36     0.5108     0.0120     0.4439     0.1490     0.6968     2.3538   238.4000     0.4584     0.6412
  747   14.920   3529.35     0.5097     0.0121     0.4391     0.1492     0.6956     2.3636   238.7200     0.4569     0.6423
  748   14.940   3530.36     0.5178     0.0121     0.4419     0.1494     0.7027     2.3390   239.0400     0.4636     0.6274
  749   14.960   3531.38     0.5216     0.0124     0.4421     0.1496     0.7077     2.3750   239.3600     0.4683     0.6264
  750   14.980   3532.41     0.5234     0.0124     0.4368     0.1498     0.7089     2.3714   239.6800     0.4692     0.6220
  751   15.000   3533.34     0.5328     0.0123     0.4372     0.1500     0.7164     2.3154   240.0000     0.4764     0.6027
  752   15.020   3534.33     0.5328     0.0126     0.4343     0.1502     0.7157     2.3603   240.3200     0.4753     0.5998
  753   15.040   3535.33     0.5334     0.0128     0.4340     0.1504     0.7154     2.3971   240.6400     0.4748     0.5958
  754   15.060   3536.31     0.5348     0.0126     0.4380     0.1506     0.7181     2.3629   240.9600     0.4771     0.5990
  755   15.080   3537.32     0.5384     0.0129     0.4415     0.1508     0.7230     2.3904   241.2800     0.4818     0.5996
  756   15.100   3538.29     0.5377     0.0128     0.4455     0.1510     0.7244     2.3846   241.6000     0.4828     0.6078
  757   15.120   3539.30     0.5410     0.0126     0.4480     0.1512     0.7289     2.3312   241.9200     0.4870     0.6083
  758   15.140   3540.27     0.5413     0.0129     0.4509     0.1514     0.7302     2.3812   242.2400     0.4880     0.6115
  759   15.160   3541.25     0.5365     0.0127     0.4504     0.1516     0.7259     2.3576   242.5600     0.4833     0.6192
  760   15.180   3542.23     0.5399     0.0127     0.4496     0.1518     0.7287     2.3510   242.8800     0.4858     0.6129
  761   15.200   3543.22     0.5416     0.0127     0.4499     0.1520     0.7308     2.3550   243.2000     0.4876     0.6125
  762   15.220   3544.24     0.5506     0.0130     0.4504     0.1522     0.7394     2.3743   243.5200     0.4958     0.5995
  763   15.240   3545.24     0.5472     0.0128     0.4521     0.1524     0.7368     2.3232   243.8400     0.4930     0.6068
  764   15.260   3546.22     0.5455     0.0127     0.4517     0.1526     0.7350     2.3313   244.1600     0.4908     0.6081
  765   15.280   3547.23     0.5546     0.0126     0.4557     0.1528     0.7455     2.2756   244.4800     0.5011     0.6024
  766   15.300   3548.17     0.5581     0.0126     0.4572     0.1530     0.7500     2.2600   244.8000     0.5052     0.6015
  767   15.320   3549.19     0.5576     0.0127     0.4584     0.1532     0.7496     2.2737   245.1200     0.5044     0.6025
  768   15.340   3550.18     0.5617     0.0125     0.4619     0.1534     0.7559     2.2289   245.4400     0.5104     0.6053
  769   15.360   3551.18     0.5688     0.0124     0.4638     0.1536     0.7638     2.1759   245.7600     0.5181     0.5997
  770   15.380   3552.13     0.5709     0.0122     0.4575     0.1538     0.7638     2.1312   246.0800     0.5177     0.5899
  771   15.400   3553.17     0.5665     0.0127     0.4559     0.1540     0.7590     2.2485   246.4000     0.5126     0.5938
  772   15.420   3554.15     0.5707     0.0130     0.4579     0.1542     0.7618     2.2825   246.7200     0.5151     0.5841
  773   15.440   3555.16     0.5711     0.0135     0.4631     0.1544     0.7648     2.3550   247.0400     0.5178     0.5928
  774   15.460   3556.20     0.5706     0.0139     0.4670     0.1546     0.7668     2.4413   247.3600     0.5194     0.6015
  775   15.480   3557.20     0.5731     0.0144     0.4642     0.1548     0.7680     2.5126   247.6800     0.5203     0.5945
  776   15.500   3558.20     0.5726     0.0141     0.4684     0.1550     0.7683     2.4642   248.0000     0.5203     0.5979
  777   15.520   3559.16     0.5688     0.0134     0.4786     0.1552     0.7682     2.3540   248.3200     0.5199     0.6150
  778   15.540   3560.17     0.5690     0.0133     0.4908     0.1554     0.7732     2.3392   248.6400     0.5245     0.6304
  779   15.560   3561.14     0.5724     0.0136     0.5047     0.1556     0.7825     2.3802   248.9600     0.5336     0.6458
  780   15.580   3562.14     0.5858     0.0131     0.5135     0.1558     0.8004     2.2435   249.2800     0.5511     0.6445
  781   15.600   3563.13     0.5941     0.0128     0.5147     0.1560     0.8108     2.1648   249.6000     0.5612     0.6415
  782   15.620   3564.12     0.6099     0.0129     0.4919     0.1562     0.8200     2.1207   249.9200     0.5701     0.6037
  783   15.640   3565.11     0.6183     0.0129     0.4952     0.1564     0.8246     2.0745   250.2400     0.5743     0.5830
  784   15.660   3566.10     0.6124     0.0139     0.4939     0.1566     0.8202     2.2822   250.5600     0.5696     0.5937
  785   15.680   3567.08     0.6238     0.0146     0.4951     0.1568     0.8318     2.3484   250.8800     0.5810     0.5827
  786   15.700   3568.04     0.6355     0.0140     0.4919     0.1570     0.8419     2.2048   251.2000     0.5907     0.5664
  787   15.720   3569.04     0.6372     0.0138     0.4989     0.1572     0.8454     2.1636   251.5200     0.5938     0.5699
  788   15.740   3570.06     0.6319     0.0144     0.5005     0.1574     0.8420     2.2811   251.8400     0.5902     0.5808
  789   15.760   3571.04     0.6421     0.0140     0.4972     0.1576     0.8508     2.1956   252.1600     0.5986     0.5666
  790   15.780   3572.02     0.6508     0.0146     0.4993     0.1578     0.8597     2.2465   252.4800     0.6072     0.5594
  791   15.800   3573.02     0.6514     0.0143     0.5013     0.1580     0.8612     2.1947   252.8000     0.6084     0.5612
  792   15.820   3574.02     0.6655     0.0139     0.4968     0.1582     0.8747     2.0955   253.1200     0.6216     0.5469
  793   15.840   3574.97     0.6681     0.0138     0.4996     0.1584     0.8771     2.0657   253.4400     0.6236     0.5437
  794   15.860   3575.97     0.6505     0.0136     0.5012     0.1586     0.8598     2.0776   253.7600     0.6061     0.5608
  795   15.880   3576.97     0.6372     0.0132     0.5076     0.1588     0.8492     2.0634   254.0800     0.5952     0.5814
  796   15.900   3577.97     0.6241     0.0132     0.5172     0.1590     0.8399     2.1024   254.4000     0.5855     0.6059
  797   15.920   3578.98     0.6116     0.0122     0.5221     0.1592     0.8306     1.9916   254.7200     0.5759     0.6290
  798   15.940   3579.97     0.6093     0.0120     0.5252     0.1594     0.8295     1.9709   255.0400     0.5745     0.6354
  799   15.960   3580.99     0.6057     0.0126     0.5278     0.1596     0.8268     2.0744   255.3600     0.5715     0.6421
  800   15.980   3581.93     0.6003     0.0129     0.5321     0.1598     0.8230     2.1497   255.6800     0.5673     0.6532
  801   16.000   3582.97     0.6031     0.0127     0.5243     0.1600     0.8263     2.1108   256.0000     0.5703     0.6514
  802   16.020   3583.93     0.6044     0.0126     0.5013     0.1602     0.8184     2.0891   256.3200     0.5621     0.6213
  803   16.040   3584.93     0.6018     0.0122     0.4993     0.1604     0.8115     2.0183   256.6400     0.5549     0.6107
  804   16.060   3585.91     0.5853     0.0119     0.5079     0.1606     0.7975     2.0301   256.9600     0.5405     0.6373
  805   16.080   3586.96     0.5776     0.0121     0.5193     0.1608     0.7941     2.0870   257.2800     0.5368     0.6605
  806   16.100   3587.96     0.5796     0.0118     0.5309     0.1610     0.8007     2.0387   257.6000     0.5431     0.6727
  807   16.120   3588.91     0.6228     0.0114     0.5261     0.1612     0.8461     1.8589   257.9200     0.5882     0.6300
  808   16.140   3589.90     0.6300     0.0105     0.5147     0.1614     0.8483     1.6618   258.2400     0.5901     0.6074
  809   16.160   3590.82     0.6444     0.0095     0.5036     0.1616     0.8569     1.4873   258.5600     0.5983     0.5754
  810   16.180   3591.84     0.6352     0.0093     0.5061     0.1618     0.8491     1.4501   258.8800     0.5902     0.5889
  811   16.200   3592.82     0.6189     0.0111     0.5018     0.1620     0.8296     1.7965   259.2000     0.5704     0.5954
  812   16.220   3593.84     0.6070     0.0104     0.5028     0.1622     0.8181     1.7075   259.5200     0.5586     0.6096
  813   16.240   3604.69     0.6552     0.0104     0.4679     0.1624     0.8584     1.6676   259.8400     0.5986     0.5456
  814   16.260   3629.91     0.7290     0.0104     0.4214     0.1626     0.9127     1.6577   260.1600     0.6526     0.4352
  815   16.280   3655.12     0.8028     0.0102     0.3842     0.1628     0.9670     1.3778   260.4800     0.7065     0.3248
  816   16.300   3658.36     0.7362     0.0098     0.4007     0.1630     0.8993     1.3072   260.8000     0.6385     0.3532
  817   16.320   3659.34     0.7041     0.0099     0.4172     0.1632     0.8788     1.4047   261.1200     0.6176     0.4092
  818   16.340   3660.32     0.6700     0.0102     0.4307     0.1634     0.8473     1.5111   261.4400     0.5859     0.4418
  819   16.360   3661.32     0.6185     0.0101     0.4482     0.1636     0.8048     1.6353   261.7600     0.5431     0.5157
  820   16.380   3662.32     0.5950     0.0101     0.4616     0.1638     0.7861     1.6875   262.0800     0.5241     0.5560
  821   16.400   3663.31     0.5849     0.0104     0.4729     0.1640     0.7833     1.7744   262.4000     0.5209     0.5920
  822   16.420   3664.34     0.6028     0.0099     0.4769     0.1642     0.8028     1.6478   262.7200     0.5400     0.5774
  823   16.440   3665.34     0.5772     0.0100     0.4871     0.1644     0.7792     1.7204   263.0400     0.5162     0.6134
  824   16.460   3666.37     0.5817     0.0097     0.5009     0.1646     0.7907     1.6809   263.3600     0.5273     0.6312
  825   16.480   3667.33     0.5998     0.0096     0.5059     0.1648     0.8121     1.6153   263.6800     0.5484     0.6214
  826   16.500   3668.32     0.6177     0.0097     0.5074     0.1650     0.8303     1.5789   264.0000     0.5663     0.6025
  827   16.520   3669.32     0.6404     0.0099     0.5054     0.1652     0.8532     1.5711   264.3200     0.5889     0.5803
  828   16.540   3670.33     0.6708     0.0096     0.4979     0.1654     0.8807     1.4414   264.6400     0.6161     0.5431
  829   16.560   3671.30     0.6971     0.0094     0.4859     0.1656     0.9024     1.3607   264.9600     0.6374     0.5069
  830   16.580   3672.29     0.7320     0.0097     0.4733     0.1658     0.9328     1.3340   265.2800     0.6675     0.4679
  831   16.600   3673.26     0.7126     0.0097     0.4743     0.1660     0.9100     1.3548   265.6000     0.6444     0.4720
  832   16.620   3674.26     0.7164     0.0093     0.4833     0.1662     0.9185     1.3124   265.9200     0.6526     0.4826
  833   16.640   3675.23     0.7431     0.0096     0.4879     0.1664     0.9493     1.2960   266.2400     0.6830     0.4749
  834   16.660   3676.23     0.7689     0.0095     0.4729     0.1666     0.9695     1.2377   266.5600     0.7030     0.4426
  835   16.680   3677.24     0.8122     0.0094     0.4562     0.1668     1.0064     1.1683   266.8800     0.7395     0.3998
  836   16.700   3678.24     0.8107     0.0090     0.4471     0.1670     0.9980     1.1115   267.2000     0.7308     0.3818
  837   16.720   3679.23     0.7600     0.0100     0.4562     0.1672     0.9499     1.2931   267.5200     0.6824     0.4181
  838   16.740   3680.21     0.7401     0.0095     0.4701     0.1674     0.9359     1.2925   267.8400     0.6680     0.4471
  839   16.760   3681.21     0.7720     0.0087     0.4710     0.1676     0.9702     1.1296   268.1600     0.7021     0.4335
  840   16.780   3682.19     0.7703     0.0095     0.4748     0.1678     0.9685     1.2352   268.4800     0.7000     0.4342
  841   16.800   3683.18     0.7729     0.0101     0.4848     0.1680     0.9757     1.3091   268.8000     0.7069     0.4455
  842   16.820   3684.17     0.8249     0.0102     0.4872     0.1682     1.0308     1.2517   269.1200     0.7616     0.4230
  843   16.840   3685.19     0.9699     0.0096     0.4538     0.1684     1.1667     1.0059   269.4400     0.8973     0.3358
  844   16.860   3686.19     1.0443     0.0093     0.4210     0.1686     1.2224     0.8902   269.7600     0.9527     0.2681
  845   16.880   3687.19     0.9554     0.0106     0.4282     0.1688     1.1348     1.0907   270.0800     0.8647     0.2991
  846   16.900   3688.21     0.9204     0.0124     0.4397     0.1690     1.1035     1.3582   270.4000     0.8331     0.3205
  847   16.920   3689.17     0.9317     0.0125     0.4506     0.1692     1.1197     1.3420   270.7200     0.8490     0.3282
  848   16.940   3690.19     0.9242     0.0113     0.4516     0.1694     1.1127     1.2401   271.0400     0.8416     0.3321
  849   16.960   3691.18     1.0274     0.0113     0.4477     0.1696     1.2168     1.1166   271.3600     0.9455     0.2980
  850   16.980   3692.14     1.0337     0.0086     0.4527     0.1698     1.2217     0.8318   271.6800     0.9501     0.2927
  851   17.000   3693.15     0.9900     0.0066     0.4615     0.1700     1.1828     0.6719   272.0000     0.9108     0.3174
  852   17.020   3694.15     1.0829     0.0070     0.4561     0.1702     1.2780     0.6559   272.3200     1.0057     0.2930
  853   17.040   3695.14     1.1410     0.0096     0.4475     0.1704     1.3283     0.8422   272.6400     1.0556     0.2611
  854   17.060   3696.14     1.1155     0.0136     0.4620     0.1706     1.3090     1.2527   272.9600     1.0360     0.2803
  855   17.080   3697.15     1.4718     0.0148     0.4441     0.1708     1.6634     1.0702   273.2800     1.3901     0.2070
  856   17.100   3698.14     2.0054     0.0158     0.3925     0.1710     2.1772     0.8290   273.6000     1.9036     0.1261
  857   17.120   3699.12     2.4093     0.0162     0.3607     0.1712     2.5639     0.6895   273.9200     2.2900     0.0861
  858   17.140   3700.10     2.6872     0.0167     0.2911     0.1714     2.8209     0.6299   274.2400     2.5467     0.0578
  859   17.160   3701.08     2.6314     0.0148     0.2736     0.1716     2.7449     0.5550   274.5600     2.4704     0.0400
  860   17.180   3702.03     2.2769     0.0115     0.3472     0.1718     2.4120     0.4994   274.8800     2.1372     0.0706
  861   17.200   3703.07     1.9820     0.0088     0.3710     0.1720     2.1375     0.4413   275.2000     1.8623     0.1065
  862   17.220   3704.05     2.0444     0.0104     0.3631     0.1722     2.1994     0.5200   275.5200     1.9239     0.1026
  863   17.240   3705.06     2.4626     0.0125     0.3548     0.1724     2.6148     0.5620   275.8400     2.3389     0.0816
  864   17.260   3706.02     3.0977     0.0156     0.3479     0.1726     3.2458     0.5595   276.1600     2.9697     0.0609
  865   17.280   3707.04     4.1478     0.0222     0.3410     0.1728     4.2907     0.6185   276.4800     4.0142     0.0420
  866   17.300   3708.12     5.6846     0.0301     0.3342     0.1730     5.8288     0.6047   276.8000     5.5520     0.0309
  867   17.320   3709.12     7.1097     0.0372     0.2079     0.1732     7.2239     0.5770   277.1200     6.9468     0.0146
  868   17.340   3710.16     8.4298     0.0428     0.0929     0.1734     8.4777     0.5324   277.4400     8.2002    -0.0072
  869   17.360   3711.17     8.9806     0.0465     0.0565     0.1736     9.0059     0.5271   277.7600     8.7281    -0.0130
  870   17.380   3712.21     9.3439     0.0496     0.1028     0.1738     9.3823     0.5426   278.0800     9.1042    -0.0091
  871   17.400   3713.22     9.8712     0.0480     0.1015     0.1740     9.9134     0.4969   278.4000     9.6350    -0.0076
  872   17.420   3714.27    10.1921     0.0466     0.1082     0.1742    10.2366     0.4626   278.7200     9.9579    -0.0068
  873   17.440   3715.35    10.4316     0.0500     0.1457     0.1744    10.4842     0.4857   279.0400    10.2052    -0.0048
  874   17.460   3716.37    10.5550     0.0567     0.1726     0.1746    10.6284     0.5369   279.3600    10.3490     0.0000
  875   17.480   3717.36    10.3732     0.0617     0.1612     0.1748    10.4445     0.5878   279.6800    10.1648    -0.0005
  876   17.500   3718.41     9.8884     0.0639     0.1624     0.1750     9.9569     0.6443   280.0000     9.6769    -0.0012
  877   17.520   3719.41     9.2401     0.0654     0.1611     0.1752     9.3090     0.7051   280.3200     9.0286    -0.0012
  878   17.540   3720.43     8.4301     0.0642     0.1483     0.1754     8.4943     0.7542   280.6400     8.2137    -0.0027
  879   17.560   3721.43     7.7873     0.0619     0.1456     0.1756     7.8471     0.7876   280.9600     7.5662    -0.0044
  880   17.580   3722.46     7.1601     0.0575     0.1565     0.1758     7.2233     0.7996   281.2800     6.9421    -0.0036
  881   17.600   3723.46     6.6432     0.0582     0.1733     0.1760     6.7121     0.8685   281.6000     6.4305    -0.0019
  882   17.620   3724.43     6.1709     0.0634     0.1994     0.1762     6.2547     1.0184   281.9200     5.9728     0.0039
  883   17.640   3725.43     5.7031     0.0620     0.1968     0.1764     5.7832     1.0782   282.2400     5.5009     0.0026
  884   17.660   3726.43     5.2225     0.0549     0.2029     0.1766     5.3073     1.0438   282.5600     5.0248     0.0050
  885   17.680   3727.44     4.6513     0.0474     0.1904     0.1768     4.7357     1.0111   282.8800     4.4528     0.0054
  886   17.700   3728.41     4.1147     0.0434     0.2075     0.1770     4.1996     0.9958   283.2000     3.9164     0.0064
  887   17.720   3729.46     3.9694     0.0467     0.1730     0.1772     4.0444     1.1787   283.5200     3.7608     0.0004
  888   17.740   3730.46     4.3028     0.0482     0.1645     0.1774     4.3769     1.1700   283.8400     4.0931    -0.0002
  889   17.760   3731.47     4.6824     0.0603     0.1351     0.1776     4.7464     1.3417   284.1600     4.4622    -0.0057
  890   17.780   3732.48     4.9980     0.0562     0.1342     0.1778     5.0506     1.1563   284.4800     4.7661    -0.0110
  891   17.800   3733.51     5.0612     0.0444     0.1397     0.1780     5.1180     0.8753   284.8000     4.8332    -0.0088
  892   17.820   3734.51     5.0316     0.0420     0.1640     0.1782     5.0998     0.8451   285.1200     4.8147    -0.0032
  893   17.840   3735.53     5.8014     0.0390     0.2150     0.1784     5.8812     0.7185   285.4400     5.5957     0.0020
  894   17.860   3736.57     6.8994     0.0385     0.2233     0.1786     7.0017     0.6132   285.7600     6.7159     0.0098
  895   17.880   3737.63     8.2360     0.0415     0.0083     0.1788     8.2755     0.5356   286.0800     7.9894    -0.0104
  896   17.900   3738.64     8.2885     0.0441    -0.0464     0.1790     8.2605     0.5215   286.4000     7.9741    -0.0308
  897   17.920   3739.66     7.0322     0.0455     0.0321     0.1792     7.0342     0.6179   286.7200     6.7475    -0.0258
  898   17.940   3740.69     6.1451     0.0466     0.0917     0.1794     6.1794     0.7531   287.0400     5.8923    -0.0166
  899   17.960   3741.69     5.5485     0.0445     0.1224     0.1796     5.5955     0.7968   287.3600     5.3082    -0.0127
  900   17.980   3742.72     5.1092     0.0409     0.1663     0.1798     5.1726     0.7970   287.6800     4.8849    -0.0059
  901   18.000   3743.74     4.6372     0.0389     0.2138     0.1800     4.7188     0.8312   288.0000     4.4308     0.0033
  902   18.020   3744.75     4.1363     0.0316     0.2697     0.1802     4.2432     0.7554   288.3200     3.9549     0.0189
  903   18.040   3745.74     3.6442     0.0283     0.3011     0.1804     3.7672     0.7666   288.6400     3.4786     0.0324
  904   18.060   3746.72     3.1461     0.0232     0.3356     0.1806     3.2822     0.7299   288.9600     2.9932     0.0482
  905   18.080   3747.74     2.6823     0.0170     0.3944     0.1808     2.8369     0.6039   289.2800     2.5477     0.0738
  906   18.100   3748.77     2.3659     0.0151     0.4294     0.1810     2.5423     0.6098   289.6000     2.2527     0.1063
  907   18.120   3749.76     2.1289     0.0149     0.4890     0.1812     2.3226     0.6725   289.9200     2.0327     0.1378
  908   18.140   3750.77     2.7106     0.0239     0.5610     0.1814     2.9416     1.0475   290.2400     2.6513     0.1395
  909   18.160   3751.76     4.7268     0.0330     0.3671     0.1816     4.9155     0.9818   290.5600     4.6249     0.0597
  910   18.180   3752.76     6.5543     0.0433     0.1284     0.1818     6.6412     0.8463   290.8800     6.3503     0.0045
  911   18.200   3753.83     7.4053     0.0525     0.0767     0.1820     7.4361     0.7215   291.2000     7.1449    -0.0152
  912   18.220   3754.84     7.6079     0.0533     0.0852     0.1822     7.6407     0.7030   291.5200     7.3491    -0.0142
  913   18.240   3755.84     7.6505     0.0572     0.0923     0.1824     7.6917     0.7470   291.8400     7.3998    -0.0114
  914   18.260   3756.87     7.5053     0.0596     0.0829     0.1826     7.5352     0.7860   292.1600     7.2430    -0.0154
  915   18.280   3777.32     7.0339     0.0606     0.1239     0.1828     7.0800     0.8082   292.4800     6.7875    -0.0103
  916   18.300   3798.42     6.5555     0.0590     0.1615     0.1830     6.6188     0.8197   292.8000     6.3260    -0.0049
  917   18.320   3805.13     5.8213     0.0575     0.1770     0.1832     5.8914     0.9775   293.1200     5.5983    -0.0029
  918   18.340   3806.16     5.1994     0.0558     0.1991     0.1834     5.2786     1.0674   293.4400     4.9852     0.0011
  919   18.360   3807.15     4.6149     0.0551     0.2034     0.1836     4.6993     1.1744   293.7600     4.4056     0.0039
  920   18.380   3808.18     3.8951     0.0506     0.2161     0.1838     3.9853     1.2588   294.0800     3.6912     0.0084
  921   18.400   3809.14     3.1084     0.0381     0.2292     0.1840     3.2018     1.2024   294.4000     2.9074     0.0134
  922   18.420   3810.16     2.3122     0.0273     0.3042     0.1842     2.4269     1.1437   294.7200     2.1322     0.0426
  923   18.440   3811.19     1.7633     0.0206     0.3703     0.1844     1.9122     1.1150   295.0400     1.6172     0.1063
  924   18.460   3812.16     1.3584     0.0153     0.3991     0.1846     1.5217     1.0836   295.3600     1.2263     0.1676
  925   18.480   3813.14     1.0913     0.0108     0.4300     0.1848     1.2685     0.9681   295.6800     0.9728     0.2447
  926   18.500   3814.19     0.9410     0.0093     0.4457     0.1850     1.1272     0.9765   296.0000     0.8312     0.3112
  927   18.520   3815.14     0.9139     0.0137     0.4527     0.1852     1.1041     1.4966   296.3200     0.8078     0.3314
  928   18.540   3816.14     0.9632     0.0168     0.4410     0.1854     1.1500     1.7798   296.6400     0.8534     0.3047
  929   18.560   3817.15     1.2188     0.0160     0.4202     0.1856     1.3983     1.3600   296.9600     1.1013     0.2205
  930   18.580   3818.09     1.5088     0.0182     0.3803     0.1858     1.6732     1.2299   297.2800     1.3760     0.1512
  931   18.600   3819.14     2.4499     0.0326     0.3348     0.1860     2.6019     1.4191   297.6000     2.3043     0.0785
  932   18.620   3820.14     3.1828     0.0451     0.2676     0.1862     3.3052     1.4309   297.9200     3.0073     0.0351
  933   18.640   3821.10     2.9995     0.0456     0.1947     0.1864     3.0877     1.4769   298.2400     2.7894     0.0082
  934   18.660   3822.10     2.3792     0.0426     0.2054     0.1866     2.4616     1.7228   298.5600     2.1630     0.0045
  935   18.680   3823.13     1.7991     0.0407     0.2708     0.1868     1.9028     2.1532   298.8800     1.6039     0.0385
  936   18.700   3824.13     1.4219     0.0385     0.3543     0.1870     1.5596     2.5818   299.2000     1.2604     0.1131
  937   18.720   3825.09     1.2030     0.0322     0.4232     0.1872     1.3668     2.6309   299.5200     1.0673     0.1904
  938   18.740   3826.07     1.1234     0.0240     0.4778     0.1874     1.3197     2.1199   299.8400     1.0198     0.2746
  939   18.760   3827.09     1.0811     0.0190     0.4869     0.1876     1.2840     1.7546   300.1600     0.9838     0.3003
  940   18.780   3828.07     1.0727     0.0159     0.5109     0.1878     1.2854     1.4831   300.4800     0.9849     0.3236
  941   18.800   3829.03     1.0739     0.0147     0.5195     0.1880     1.2922     1.3641   300.8000     0.9914     0.3346
  942   18.820   3830.05     1.0452     0.0137     0.5204     0.1882     1.2632     1.3050   301.1200     0.9621     0.3440
  943   18.840   3831.05     1.0085     0.0135     0.5130     0.1884     1.2255     1.3386   301.4400     0.9241     0.3552
  944   18.860   3832.03     0.9779     0.0135     0.5157     0.1886     1.1964     1.3698   301.7600     0.8946     0.3706
  945   18.880   3833.00     0.9313     0.0148     0.5195     0.1888     1.1488     1.5694   302.0800     0.8467     0.3888
  946   18.900   3834.00     0.8627     0.0146     0.4951     0.1890     1.0744     1.6811   302.4000     0.7720     0.4079
  947   18.920   3835.05     0.8290     0.0141     0.4981     0.1892     1.0381     1.7093   302.7200     0.7354     0.4198
  948   18.940   3836.00     0.8646     0.0150     0.5051     0.1894     1.0763     1.7463   303.0400     0.7733     0.4071
  949   18.960   3837.00     0.9102     0.0171     0.5136     0.1896     1.1248     1.8740   303.3600     0.8214     0.3910
  950   18.980   3838.00     0.8505     0.0177     0.4582     0.1898     1.0544     2.0457   303.6800     0.7507     0.3935
  951   19.000   3839.02     0.8078     0.0168     0.3900     0.1900     0.9851     2.0794   304.0000     0.6811     0.3406
  952   19.020   3840.00     0.8090     0.0171     0.3986     0.1902     0.9740     2.1084   304.3200     0.6697     0.3026
  953   19.040   3840.96     0.7842     0.0170     0.4155     0.1904     0.9537     2.1532   304.6400     0.6491     0.3285
  954   19.060   3841.98     0.7435     0.0179     0.4535     0.1906     0.9274     2.3783   304.9600     0.6225     0.3974
  955   19.080   3842.89     0.7329     0.0181     0.4924     0.1908     0.9342     2.4678   305.2800     0.6289     0.4588
  956   19.100   3843.91     0.8170     0.0179     0.5338     0.1910     1.0344     2.2639   305.6000     0.7288     0.4483
  957   19.120   3844.94     0.8794     0.0210     0.5744     0.1912     1.1157     2.3991   305.9200     0.8098     0.4588
  958   19.140   3845.89     0.9227     0.0231     0.5996     0.1914     1.1687     2.5341   306.2400     0.8625     0.4572
  959   19.160   3846.86     1.0512     0.0236     0.6267     0.1916     1.3127     2.2951   306.5600     1.0062     0.4286
  960   19.180   3847.84     1.1989     0.0240     0.6100     0.1918     1.4562     2.0443   306.8800     1.1494     0.3667
  961   19.200   3848.81     1.2711     0.0242     0.6182     0.1920     1.5294     1.9078   307.2000     1.2222     0.3462
  962   19.220   3849.86     1.2183     0.0246     0.6362     0.1922     1.4813     1.9869   307.5200     1.1738     0.3698
  963   19.240   3850.82     1.1482     0.0267     0.6816     0.1924     1.4299     2.3028   307.8400     1.1220     0.4263
  964   19.260   3851.81     1.1247     0.0262     0.6804     0.1926     1.4124     2.3247   308.1600     1.1042     0.4460
  965   19.280   3852.84     1.1021     0.0241     0.6922     0.1928     1.3887     2.1745   308.4800     1.0802     0.4533
  966   19.300   3853.77     1.1031     0.0249     0.7254     0.1930     1.4036     2.2619   308.8000     1.0948     0.4771
  967   19.320   3854.77     1.1085     0.0241     0.7405     0.1932     1.4179     2.1804   309.1200     1.1088     0.4903
  968   19.340   3855.77     1.1227     0.0250     0.7493     0.1934     1.4370     2.2291   309.4400     1.1275     0.4920
  969   19.360   3856.81     1.0926     0.0250     0.7348     0.1936     1.4035     2.2832   309.7600     1.0938     0.4999
  970   19.380   3857.82     1.0937     0.0250     0.7281     0.1938     1.4034     2.2903   310.0800     1.0933     0.4972
  971   19.400   3858.78     1.1748     0.0251     0.6949     0.1940     1.4695     2.1371   310.4000     1.1591     0.4379
  972   19.420   3859.80     1.1883     0.0253     0.6394     0.1942     1.4688     2.1408   310.7200     1.1581     0.4091
  973   19.440   3860.80     1.1755     0.0258     0.6352     0.1944     1.4414     2.1862   311.0400     1.1303     0.3880
  974   19.460   3861.79     1.1863     0.0253     0.6240     0.1946     1.4474     2.1301   311.3600     1.1360     0.3760
  975   19.480   3862.77     1.1718     0.0237     0.6321     0.1948     1.4379     2.0253   311.6800     1.1262     0.3895
  976   19.500   3863.81     1.1417     0.0231     0.6171     0.1950     1.4003     1.9871   312.0000     1.0883     0.3867
  977   19.520   3864.82     1.0643     0.0221     0.6242     0.1952     1.3263     2.0664   312.3200     1.0140     0.4227
  978   19.540   3865.79     1.0469     0.0215     0.6091     0.1954     1.3063     2.0516   312.6400     0.9937     0.4251
  979   19.560   3866.81     1.0415     0.0211     0.6054     0.1956     1.2953     2.0147   312.9600     0.9823     0.4160
  980   19.580   3867.75     1.0089     0.0227     0.6316     0.1958     1.2689     2.2409   313.2800     0.9556     0.4429
  981   19.600   3868.76     1.0196     0.0232     0.6659     0.1960     1.2941     2.2836   313.6000     0.9805     0.4665
  982   19.620   3869.81     1.0892     0.0218     0.6972     0.1962     1.3786     2.0295   313.9200     1.0647     0.4628
  983   19.640   3870.82     1.1159     0.0219     0.7038     0.1964     1.4136     1.9828   314.2400     1.0994     0.4662
  984   19.660   3871.79     1.1357     0.0225     0.7091     0.1966     1.4319     1.9771   314.5600     1.1174     0.4554
  985   19.680   3872.75     1.1250     0.0244     0.7050     0.1968     1.4221     2.1588   314.8800     1.1072     0.4611
  986   19.700   3873.71     1.0790     0.0242     0.7273     0.1970     1.3795     2.2315   315.2000     1.0643     0.4872
  987   19.720   3874.71     1.0684     0.0238     0.7419     0.1972     1.3805     2.2317   315.5200     1.0650     0.5126
  988   19.740   3875.70     1.0633     0.0230     0.7507     0.1974     1.3758     2.1606   315.8400     1.0600     0.5159
  989   19.760   3876.71     1.0729     0.0222     0.7596     0.1976     1.3906     2.0668   316.1600     1.0745     0.5202
  990   19.780   3877.73     1.0767     0.0229     0.7733     0.1978     1.4004     2.1264   316.4800     1.0840     0.5287
  991   19.800   3878.71     1.0669     0.0226     0.7695     0.1980     1.3924     2.1131   316.8000     1.0756     0.5365
  992   19.820   3879.71     1.0800     0.0232     0.7601     0.1982     1.3973     2.1541   317.1200     1.0802     0.5160
  993   19.840   3880.69     1.1121     0.0230     0.7754     0.1984     1.4367     2.0710   317.4400     1.1192     0.5132
  994   19.860   3881.66     1.1193     0.0233     0.7649     0.1986     1.4439     2.0822   317.7600     1.1261     0.5098
  995   19.880   3882.66     1.1208     0.0236     0.7930     0.1988     1.4481     2.1079   318.0800     1.1300     0.5138
  996   19.900   3883.70     1.1261     0.0240     0.8066     0.1990     1.4631     2.1394   318.4000     1.1447     0.5272
  997   19.920   3884.69     1.1127     0.0243     0.8222     0.1992     1.4570     2.1832   318.7200     1.1382     0.5452
  998   19.940   3885.73     1.1127     0.0243     0.8222     0.1994     1.4582     2.1856   319.0400     1.1392     0.5472
  999   19.960   3886.68     1.1199     0.0245     0.8313     0.1996     1.4666     2.1930   319.3600     1.1473     0.5456
 1000   19.980   3887.69     1.1162     0.0252     0.8397     0.1998     1.4683     2.2569   319.6800     1.1486     0.5558
 1001   20.000   3888.77     1.1306     0.0255     0.8455     0.2000     1.4844     2.2511   320.0000     1.1644     0.5517
 1002   20.020   3889.73     1.1198     0.0252     0.8496     0.2002     1.4759     2.2460   320.3200     1.1556     0.5605
 1003   20.040   3890.72     1.1292     0.0253     0.8494     0.2004     1.4865     2.2522   320.6400     1.1659     0.5578
 1004   20.060   3891.65     1.1249     0.0259     0.8542     0.2006     1.4822     2.2945   320.9600     1.1612     0.5597
 1005   20.080   3892.66     1.1184     0.0256     0.8618     0.2008     1.4800     2.2925   321.2800     1.1587     0.5697
 1006   20.100   3893.72     1.1453     0.0271     0.8674     0.2010     1.5087     2.3754   321.6000     1.1871     0.5596
 1007   20.120   3894.69     1.1644     0.0269     0.8611     0.2012     1.5279     2.3277   321.9200     1.2060     0.5508
 1008   20.140   3895.64     1.1652     0.0266     0.8481     0.2014     1.5236     2.2974   322.2400     1.2013     0.5426
 1009   20.160   3896.64     1.1557     0.0267     0.8535     0.2016     1.5109     2.3036   322.5600     1.1883     0.5419
 1010   20.180   3897.69     1.1533     0.0273     0.8764     0.2018     1.5181     2.3742   322.8800     1.1952     0.5579
 1011   20.200   3898.69     1.1579     0.0266     0.8985     0.2020     1.5326     2.2987   323.2000     1.2094     0.5706
 1012   20.220   3905.76     1.1747     0.0267     0.8967     0.2022     1.5528     2.2881   323.5200     1.2292     0.5678
 1013   20.240   3927.05     1.1958     0.0272     0.8871     0.2024     1.5697     2.3286   323.8400     1.2459     0.5525
 1014   20.260   3948.35     1.2168     0.0270     0.8812     0.2026     1.5867     2.2496   324.1600     1.2626     0.5371
 1015   20.280   3949.37     1.2130     0.0276     0.8888     0.2028     1.5855     2.2672   324.4800     1.2610     0.5426
 1016   20.300   3950.37     1.1941     0.0279     0.9027     0.2030     1.5699     2.3327   324.8000     1.2451     0.5555
 1017   20.320   3951.38     1.2138     0.0282     0.9089     0.2032     1.5954     2.3343   325.1200     1.2703     0.5553
 1018   20.340   3952.38     1.2319     0.0276     0.8943     0.2034     1.6101     2.2443   325.4400     1.2847     0.5426
 1019   20.360   3953.38     1.2184     0.0274     0.8952     0.2036     1.5917     2.2440   325.7600     1.2659     0.5413
 1020   20.380   3954.36     1.2151     0.0279     0.9050     0.2038     1.5957     2.2934   326.0800     1.2697     0.5533
 1021   20.400   3955.31     1.2229     0.0277     0.9093     0.2040     1.6055     2.2626   326.4000     1.2791     0.5527
 1022   20.420   3956.38     1.2189     0.0271     0.8969     0.2042     1.5981     2.2222   326.7200     1.2714     0.5495
 1023   20.440   3957.38     1.2068     0.0269     0.8923     0.2044     1.5856     2.2235   327.0400     1.2586     0.5543
 1024   20.460   3958.38     1.1829     0.0271     0.9005     0.2046     1.5570     2.2824   327.3600     1.2296     0.5580
 1025   20.480   3959.41     1.1696     0.0266     0.9222     0.2048     1.5542     2.2685   327.6800     1.2265     0.5796
 1026   20.500   3960.41     1.1681     0.0271     0.9360     0.2050     1.5594     2.3199   328.0000     1.2314     0.5900
 1027   20.520   3961.41     1.1818     0.0270     0.9255     0.2052     1.5713     2.2871   328.3200     1.2430     0.5810
 1028   20.540   3962.36     1.1629     0.0261     0.9412     0.2054     1.5566     2.2409   328.6400     1.2280     0.5961
 1029   20.560   3963.33     1.1641     0.0262     0.9522     0.2056     1.5623     2.2533   328.9600     1.2334     0.6021
 1030   20.580   3964.35     1.1921     0.0263     0.9613     0.2058     1.5947     2.2165   329.2800     1.2654     0.5949
 1031   20.600   3965.38     1.1934     0.0265     0.9732     0.2060     1.5981     2.2203   329.6000     1.2685     0.5971
 1032   20.620   3966.36     1.1962     0.0271     0.9841     0.2062     1.6084     2.2759   329.9200     1.2785     0.6064
 1033   20.640   3967.33     1.2121     0.0272     0.9590     0.2064     1.6218     2.2486   330.2400     1.2915     0.5954
 1034   20.660   3968.33     1.2142     0.0267     0.9491     0.2066     1.6112     2.2033   330.5600     1.2807     0.5769
 1035   20.680   3969.28     1.2239     0.0269     0.9561     0.2068     1.6254     2.2014   330.8800     1.2945     0.5787
 1036   20.700   3970.28     1.2265     0.0279     0.9603     0.2070     1.6281     2.2735   331.2000     1.2969     0.5776
 1037   20.720   3971.28     1.2472     0.0279     0.9719     0.2072     1.6551     2.2380   331.5200     1.3236     0.5771
 1038   20.740   3972.24     1.2712     0.0287     0.9549     0.2074     1.6753     2.2621   331.8400     1.3435     0.5618
 1039   20.760   3973.26     1.2684     0.0282     0.9254     0.2076     1.6623     2.2204   332.1600     1.3301     0.5489
 1040   20.780   3974.27     1.2689     0.0277     0.9202     0.2078     1.6557     2.1849   332.4800     1.3232     0.5389
 1041   20.800   3975.28     1.2524     0.0273     0.9159     0.2080     1.6375     2.1759   332.8000     1.3047     0.5434
 1042   20.820   3976.23     1.2210     0.0276     0.9223     0.2082     1.6066     2.2465   333.1200     1.2735     0.5573
 1043   20.840   3977.25     1.2118     0.0274     0.9235     0.2084     1.5992     2.2645   333.4400     1.2657     0.5640
 1044   20.860   3978.26     1.2216     0.0267     0.9380     0.2086     1.6141     2.1864   333.7600     1.2804     0.5670
 1045   20.880   3979.22     1.2420     0.0264     0.9344     0.2088     1.6359     2.1316   334.0800     1.3018     0.5599
 1046   20.900   3980.24     1.2356     0.0267     0.9267     0.2090     1.6254     2.1604   334.4000     1.2910     0.5570
 1047   20.920   3981.30     1.2359     0.0262     0.9268     0.2092     1.6251     2.1243   334.7200     1.2903     0.5559
 1048   20.940   3982.27     1.2146     0.0257     0.9348     0.2094     1.6061     2.1101   335.0400     1.2711     0.5687
 1049   20.960   3983.26     1.1956     0.0258     0.9443     0.2096     1.5913     2.1571   335.3600     1.2559     0.5832
 1050   20.980   3984.26     1.1854     0.0264     0.9384     0.2098     1.5810     2.2256   335.6800     1.2454     0.5880
 1051   21.000   3985.26     1.1831     0.0267     0.9489     0.2100     1.5784     2.2589   336.0000     1.2424     0.5885
 1052   21.020   3986.28     1.1830     0.0272     0.9581     0.2102     1.5845     2.2996   336.3200     1.2482     0.5975
 1053   21.040   3987.28     1.1951     0.0269     0.9599     0.2104     1.5986     2.2551   336.6400     1.2619     0.5945
 1054   21.060   3988.30     1.1929     0.0271     0.9586     0.2106     1.5940     2.2752   336.9600     1.2571     0.5922
 1055   21.080   3989.27     1.2035     0.0272     0.9587     0.2108     1.6075     2.2653   337.2800     1.2702     0.5914
 1056   21.100   3990.26     1.2014     0.0266     0.9589     0.2110     1.6030     2.2097   337.6000     1.2654     0.5890
 1057   21.120   3991.24     1.1944     0.0262     0.9771     0.2112     1.6020     2.1937   337.9200     1.2641     0.6007
 1058   21.140   3992.23     1.2289     0.0268     0.9833     0.2114     1.6418     2.1950   338.2400     1.3035     0.5919
 1059   21.160   3993.24     1.2508     0.0274     0.9738     0.2116     1.6609     2.1927   338.5600     1.3224     0.5784
 1060   21.180   3994.23     1.2634     0.0288     0.9910     0.2118     1.6766     2.2842   338.8800     1.3377     0.5771
 1061   21.200   3995.23     1.2926     0.0286     0.9789     0.2120     1.7047     2.2194   339.2000     1.3655     0.5633
 1062   21.220   3996.20     1.2910     0.0284     0.9758     0.2122     1.7026     2.1978   339.5200     1.3630     0.5632
 1063   21.240   3997.22     1.2838     0.0283     0.9794     0.2124     1.6935     2.2048   339.8400     1.3537     0.5637
 1064   21.260   3998.22     1.2621     0.0283     0.9994     0.2126     1.6799     2.2392   340.1600     1.3397     0.5838
 1065   21.280   3999.18     1.2425     0.0279     1.0118     0.2128     1.6657     2.2386   340.4800     1.3252     0.5997
 1066   21.300   4000.17     1.2366     0.0279     1.0151     0.2130     1.6627     2.2611   340.8000     1.3219     0.6062
 1067   21.320   4001.18     1.2481     0.0283     1.0104     0.2132     1.6733     2.2731   341.1200     1.3322     0.5999
 1068   21.340   4002.23     1.2564     0.0289     1.0063     0.2134     1.6793     2.3045   341.4400     1.3379     0.5931
 1069   21.360   4003.22     1.2662     0.0279     1.0142     0.2136     1.6913     2.2055   341.7600     1.3496     0.5917
 1070   21.380   4004.19     1.2783     0.0283     1.0068     0.2138     1.7035     2.2228   342.0800     1.3614     0.5866
 1071   21.400   4005.20     1.2768     0.0296     0.9975     0.2140     1.6956     2.3183   342.4000     1.3532     0.5787
 1072   21.420   4006.19     1.2878     0.0298     0.9954     0.2142     1.7054     2.3301   342.7200     1.3627     0.5725
 1073   21.440   4007.26     1.3143     0.0287     0.9904     0.2144     1.7328     2.1836   343.0400     1.3898     0.5628
 1074   21.460   4008.25     1.3293     0.0287     0.9537     0.2146     1.7349     2.1590   343.3600     1.3915     0.5398
 1075   21.480   4009.29     1.3124     0.0293     0.9567     0.2148     1.7129     2.2285   343.6800     1.3693     0.5396
 1076   21.500   4010.29     1.2975     0.0290     0.9515     0.2150     1.6969     2.2311   344.0000     1.3529     0.5440
 1077   21.520   4011.27     1.2661     0.0282     0.9690     0.2152     1.6708     2.2216   344.3200     1.3264     0.5642
 1078   21.540   4012.28     1.2721     0.0275     0.9743     0.2154     1.6808     2.1685   344.6400     1.3362     0.5671
 1079   21.560   4013.31     1.2756     0.0271     0.9864     0.2156     1.6883     2.1269   344.9600     1.3434     0.5709
 1080   21.580   4014.28     1.2589     0.0276     0.9909     0.2158     1.6749     2.1843   345.2800     1.3296     0.5826
 1081   21.600   4015.29     1.2441     0.0275     1.0030     0.2160     1.6649     2.2076   345.6000     1.3193     0.5956
 1082   21.620   4016.29     1.2667     0.0270     1.0048     0.2162     1.6885     2.1389   345.9200     1.3426     0.5871
 1083   21.640   4017.25     1.2808     0.0265     1.0051     0.2164     1.7036     2.0702   346.2400     1.3573     0.5822
 1084   21.660   4018.25     1.2930     0.0270     0.9930     0.2166     1.7112     2.0913   346.5600     1.3647     0.5710
 1085   21.680   4019.27     1.2937     0.0281     1.0011     0.2168     1.7122     2.1682   346.8800     1.3654     0.5710
 1086   21.700   4020.28     1.2902     0.0287     1.0093     0.2170     1.7142     2.2230   347.2000     1.3670     0.5797
 1087   21.720   4021.29     1.2990     0.0290     0.9938     0.2172     1.7212     2.2266   347.5200     1.3737     0.5737
 1088   21.740   4022.29     1.3157     0.0293     0.9744     0.2174     1.7252     2.2343   347.8400     1.3774     0.5500
 1089   21.760   4023.25     1.3021     0.0300     0.9791     0.2176     1.7134     2.3054   348.1600     1.3652     0.5579
 1090   21.780   4024.25     1.2928     0.0300     0.9853     0.2178     1.7053     2.3218   348.4800     1.3568     0.5632
 1091   21.800   4025.24     1.2910     0.0280     0.9855     0.2180     1.7046     2.1707   348.8000     1.3558     0.5656
 1092   21.820   4026.23     1.2861     0.0268     0.9884     0.2182     1.7009     2.0838   349.1200     1.3518     0.5692
 1093   21.840   4027.29     1.2828     0.0272     0.9999     0.2184     1.7014     2.1183   349.4400     1.3520     0.5758
 1094   21.860   4028.27     1.2749                1.0157     0.2186     1.6989              349.7600     1.3491     0.5863
 1095   21.880   4029.28     1.2803                1.0158     0.2188     1.7073              350.0800     1.3572     0.5878
 1096   21.900   4030.28     1.3136                0.9937     0.2190     1.7351              350.4000     1.3847     0.5667
 1097   21.920   4031.32     1.3339                0.9718     0.2192     1.7457              350.7200     1.3950     0.5457
 1098   21.940   4032.32     1.3532                0.9605     0.2194     1.7573              351.0400     1.4063     0.5282
 1099   21.960   4033.28     1.3533                           0.2196     1.7594              351.3600     1.4081     0.5307
 
 
