

 Program UNIPLOT                         version 05.36.02
 _______________
 (c) Fugro Netherlands Marine, Nootdorp, The Netherlands


 ASCII representation of data plotted on a graph.

 This ASCII file presents data interpolated to values per fixed depth interval.
 The data are corrected for the depth-offset differences between the various 
 transducers in the penetrometer.

 The records at the start of penetration may include no values or anomalous
 values where a depth offset implies incomplete penetration of a particular
 sensor into the ground.

 The records at the end of penetration may include no values for data channels
 where the transducer did not reach this depth.

 The reference level for test values is (1) the ground surface for onshore tests and (2) the seafloor for nearshore and offshore tests.

 UNICAS data file          : CPT-2008.000                            
 Output using command file : PlotASCII.cmd

 ASCII file created at : date          :12-Jul-2022
                         time          :16:16:29
 Project number                        :20024805                                                                                            
 Date of testing                       :10-Jul-2022                                                                                         
 Location                              :Hong Kong Offshore Wind Farm Project                                                                
 Test name                             :CPT-2008
 Penetrometer                          :F7.5CKE2HAW2/B/3285
 Serial no                             :1701-3285

 Table description:
 Column ID                             :Parameter name
 ___________________________________________________________________________________
 Rec                                   :Record ID, Record ID [-]
 Depth                                 :Depth, Depth [m]
 Time                                  :Time, Time [s]
 Cone                                  :Cone Resistance, Cone Resistance [MPa]
 Friction                              :Sleeve Friction, Sleeve Friction [MPa]
 Pore 2                                :Porewater Pressure, Porewater Pressure at Shoulder [MPa]
 HydroPress                            :Hydrostatic Pressure, Hydrostatic Pressure [MPa]
 qt                                    :Total Cone Resistance, Total Cone Resistance [MPa]
 Fric_ratio                            :Friction Ratio, Friction Ratio [%]
 SigmaVert                             :Vertical stress, Vertical stress [kPa] as specified in ground model
 Qnet                                  :Net Cone Resistance, Net Cone Resistance [MPa], unit weight as specified in ground model
 Bq                                    :Porewater Pressure Ratio, Porewater Pressure Ratio [-], unit weight as specified in ground model


 Data table:
  Rec    Depth      Time       Cone   Friction     Pore 2 HydroPress         qt Fric_ratio  SigmaVert       Qnet         Bq
   No        m         s        MPa        MPa        MPa        MPa        MPa          %        kPa        MPa          -
    1    0.000   2091.91     0.0000                           0.0000     0.0000                0.0000     0.0000           
    2    0.020   2099.72     0.0017                0.0001     0.0002     0.0017                0.3200     0.0014    -0.2383
    3    0.040   2105.96     0.0068               -0.0020     0.0004     0.0058                0.6400     0.0052    -0.5397
    4    0.060   2106.90     0.0083     0.0005    -0.0023     0.0006     0.0074     6.6132     0.9600     0.0064    -0.4284
    5    0.080   2107.80     0.0112     0.0005    -0.0026     0.0008     0.0101     4.8864     1.2800     0.0088    -0.3911
    6    0.100   2108.69     0.0088     0.0005    -0.0010     0.0010     0.0080     6.0247     1.6000     0.0064    -0.4229
    7    0.120   2109.58     0.0065     0.0005     0.0009     0.0012     0.0066     7.7571     1.9200     0.0047    -0.1823
    8    0.140   2110.52     0.0093     0.0010    -0.0006     0.0014     0.0091    11.1333     2.2400     0.0068    -0.2712
    9    0.160   2111.43     0.0081     0.0007    -0.0001     0.0016     0.0078     7.5923     2.5600     0.0053    -0.4260
   10    0.180   2112.31     0.0100     0.0008     0.0006     0.0018     0.0103     7.7503     2.8800     0.0075    -0.1408
   11    0.200   2113.22     0.0127     0.0008    -0.0023     0.0020     0.0124     6.1588     3.2000     0.0092    -0.3193
   12    0.220   2114.13     0.0127     0.0010    -0.0001     0.0022     0.0118     7.9842     3.5200     0.0083    -0.5558
   13    0.240   2115.01     0.0128     0.0006     0.0041     0.0024     0.0138     4.4719     3.8400     0.0099     0.0159
   14    0.260   2115.94     0.0121     0.0007     0.0047     0.0026     0.0137     6.0497     4.1600     0.0095     0.1120
   15    0.280   2117.05     0.0120     0.0009     0.0053     0.0028     0.0138     7.8548     4.4800     0.0094     0.1499
   16    0.300   2118.17     0.0139     0.0009     0.0051     0.0030     0.0160     6.5095     4.8000     0.0112     0.1920
   17    0.320   2119.26     0.0151     0.0010     0.0053     0.0032     0.0173     6.6047     5.1200     0.0122     0.1673
   18    0.340   2120.25     0.0150     0.0010     0.0046     0.0034     0.0176     6.7152     5.4400     0.0121     0.2204
   19    0.360   2121.25     0.0201     0.0009     0.0046     0.0036     0.0219     4.7434     5.7600     0.0162     0.0358
   20    0.380   2122.23     0.0193     0.0008     0.0070     0.0038     0.0217     4.6370     6.0800     0.0156     0.1179
   21    0.400   2123.26     0.0249     0.0009     0.0101     0.0040     0.0289     3.5717     6.4000     0.0225     0.2396
   22    0.420   2124.29     0.0290     0.0008     0.0080     0.0042     0.0324     2.7297     6.7200     0.0257     0.1573
   23    0.440   2125.31     0.0321     0.0011     0.0069     0.0044     0.0355     3.6209     7.0400     0.0284     0.1285
   24    0.460   2126.30     0.0383     0.0016     0.0041     0.0046     0.0404     4.2109     7.3600     0.0331     0.0174
   25    0.480   2127.33     0.0396     0.0017     0.0033     0.0048     0.0408     4.3019     7.6800     0.0331    -0.0577
   26    0.500   2128.30     0.0419     0.0019     0.0039     0.0050     0.0436     4.4941     8.0000     0.0356    -0.0228
   27    0.520   2129.30     0.0423     0.0019     0.0015     0.0052     0.0434     4.2411     8.3200     0.0351    -0.0774
   28    0.540   2130.31     0.0393     0.0019     0.0000     0.0054     0.0393     4.6789     8.6400     0.0307    -0.1770
   29    0.560   2131.27     0.0355     0.0022     0.0017     0.0056     0.0359     6.0915     8.9600     0.0269    -0.1750
   30    0.580   2132.29     0.0345     0.0024     0.0032     0.0058     0.0356     6.9213     9.2800     0.0263    -0.1196
   31    0.600   2133.28     0.0288     0.0024     0.0069     0.0060     0.0311     6.9854     9.6000     0.0215    -0.0227
   32    0.620   2134.32     0.0297     0.0023     0.0085     0.0062     0.0328     7.1242     9.9200     0.0229     0.0591
   33    0.640   2135.30     0.0285     0.0023     0.0103     0.0064     0.0326     7.2699    10.2400     0.0223     0.1419
   34    0.660   2136.32     0.0317     0.0021     0.0129     0.0066     0.0369     6.0259    10.5600     0.0263     0.2209
   35    0.680   2137.33     0.0339     0.0021     0.0126     0.0068     0.0386     6.3888    10.8800     0.0277     0.1582
   36    0.700   2145.67     0.0347     0.0017     0.0130     0.0070     0.0403     4.8469    11.2000     0.0291     0.2141
   37    0.720   2162.75     0.0348     0.0018     0.0122     0.0072     0.0400     5.1441    11.5200     0.0285     0.1827
   38    0.740   2179.84     0.0348     0.0017     0.0113     0.0074     0.0397     4.8795    11.8400     0.0278     0.1513
   39    0.760   2187.03     0.0366     0.0016     0.0140     0.0076     0.0420     4.4525    12.1600     0.0298     0.1729
   40    0.780   2188.07     0.0359     0.0018     0.0153     0.0078     0.0422     5.1107    12.4800     0.0297     0.2367
   41    0.800   2189.07     0.0389     0.0019     0.0165     0.0080     0.0458     4.7817    12.8000     0.0330     0.2514
   42    0.820   2190.09     0.0372     0.0024     0.0153     0.0082     0.0439     6.4035    13.1200     0.0308     0.2496
   43    0.840   2191.09     0.0422     0.0019     0.0128     0.0084     0.0474     4.4885    13.4400     0.0339     0.1166
   44    0.860   2192.10     0.0417     0.0019     0.0144     0.0086     0.0476     4.7236    13.7600     0.0338     0.1558
   45    0.880   2193.11     0.0410     0.0020     0.0138     0.0088     0.0471     4.8261    14.0800     0.0330     0.1712
   46    0.900   2194.14     0.0438     0.0022     0.0128     0.0090     0.0491     4.9120    14.4000     0.0347     0.0997
   47    0.920   2195.12     0.0426     0.0021     0.0152     0.0092     0.0487     4.7206    14.7200     0.0340     0.1627
   48    0.940   2196.12     0.0435     0.0021     0.0144     0.0094     0.0496     4.9134    15.0400     0.0346     0.1465
   49    0.960   2197.09     0.0468     0.0019     0.0143     0.0096     0.0526     4.0485    15.3600     0.0373     0.1125
   50    0.980   2198.08     0.0445     0.0021     0.0174     0.0098     0.0511     4.7971    15.6800     0.0354     0.1654
   51    1.000   2199.13     0.0443     0.0022     0.0213     0.0100     0.0528     5.0160    16.0000     0.0368     0.2772
   52    1.020   2200.11     0.0441     0.0021     0.0234     0.0102     0.0536     4.7521    16.3200     0.0373     0.3343
   53    1.040   2201.11     0.0434     0.0019     0.0244     0.0104     0.0535     4.3556    16.6400     0.0369     0.3726
   54    1.060   2202.08     0.0437     0.0019     0.0246     0.0106     0.0541     4.3408    16.9600     0.0371     0.3804
   55    1.080   2203.05     0.0436     0.0017     0.0243     0.0108     0.0540     3.9519    17.2800     0.0367     0.3828
   56    1.100   2204.06     0.0431     0.0017     0.0240     0.0110     0.0533     3.8622    17.6000     0.0357     0.3695
   57    1.120   2205.10     0.0424     0.0017     0.0242     0.0112     0.0526     3.9899    17.9200     0.0346     0.3746
   58    1.140   2206.11     0.0445     0.0018     0.0250     0.0114     0.0549     3.9506    18.2400     0.0366     0.3626
   59    1.160   2207.13     0.0425     0.0020     0.0257     0.0116     0.0531     4.6800    18.5600     0.0345     0.3946
   60    1.180   2208.13     0.0443     0.0020     0.0259     0.0118     0.0552     4.5936    18.8800     0.0363     0.3922
   61    1.200   2209.13     0.0468     0.0017     0.0260     0.0120     0.0578     3.6293    19.2000     0.0386     0.3667
   62    1.220   2210.15     0.0460     0.0017     0.0263     0.0122     0.0571     3.6274    19.5200     0.0376     0.3753
   63    1.240   2211.16     0.0457     0.0018     0.0251     0.0124     0.0564     3.8678    19.8400     0.0366     0.3626
   64    1.260   2212.18     0.0441     0.0018     0.0244     0.0126     0.0545     4.1376    20.1600     0.0343     0.3544
   65    1.280   2213.19     0.0437     0.0018     0.0237     0.0128     0.0536     3.9179    20.4800     0.0332     0.3289
   66    1.300   2214.19     0.0436     0.0019     0.0248     0.0130     0.0539     4.3893    20.8000     0.0331     0.3489
   67    1.320   2215.23     0.0448     0.0020     0.0245     0.0132     0.0551     4.5475    21.1200     0.0340     0.3328
   68    1.340   2216.21     0.0433     0.0021     0.0251     0.0134     0.0537     4.8321    21.4400     0.0322     0.3528
   69    1.360   2217.22     0.0445     0.0021     0.0274     0.0136     0.0556     4.8494    21.7600     0.0338     0.3802
   70    1.380   2218.25     0.0553     0.0022     0.0296     0.0138     0.0675     4.1307    22.0800     0.0455     0.3373
   71    1.400   2219.25     0.0555     0.0020     0.0324     0.0140     0.0687     3.5751    22.4000     0.0463     0.3773
   72    1.420   2220.26     0.0551     0.0021     0.0322     0.0142     0.0685     3.7973    22.7200     0.0458     0.3864
   73    1.440   2221.23     0.0560     0.0023     0.0311     0.0144     0.0692     4.1523    23.0400     0.0462     0.3710
   74    1.460   2222.22     0.0587     0.0022     0.0318     0.0146     0.0719     3.7140    23.3600     0.0486     0.3465
   75    1.480   2223.24     0.0542     0.0021     0.0333     0.0148     0.0680     3.9241    23.6800     0.0443     0.4059
   76    1.500   2224.25     0.0569     0.0024     0.0347     0.0150     0.0712     4.1675    24.0000     0.0472     0.4055
   77    1.520   2225.25     0.0547     0.0020     0.0363     0.0152     0.0697     3.5603    24.3200     0.0454     0.4518
   78    1.540   2226.22     0.0538     0.0021     0.0377     0.0154     0.0696     3.7832    24.6400     0.0449     0.4931
   79    1.560   2227.22     0.0574     0.0022     0.0379     0.0156     0.0732     3.8899    24.9600     0.0482     0.4541
   80    1.580   2228.20     0.0592     0.0021     0.0371     0.0158     0.0750     3.5092    25.2800     0.0498     0.4410
   81    1.600   2229.16     0.0552     0.0022     0.0364     0.0160     0.0706     3.8545    25.6000     0.0450     0.4600
   82    1.620   2230.17     0.0551     0.0022     0.0351     0.0162     0.0700     4.1029    25.9200     0.0441     0.4397
   83    1.640   2231.17     0.0581     0.0023     0.0335     0.0164     0.0723     4.1232    26.2400     0.0461     0.3813
   84    1.660   2232.17     0.0631     0.0022     0.0378     0.0166     0.0782     3.4408    26.5600     0.0517     0.3747
   85    1.680   2233.17     0.0701     0.0025     0.0406     0.0168     0.0867     3.6083    26.8800     0.0599     0.3817
   86    1.700   2234.19     0.0718     0.0024     0.0445     0.0170     0.0903     3.3715    27.2000     0.0631     0.4277
   87    1.720   2235.13     0.0751     0.0025     0.0413     0.0172     0.0928     3.3311    27.5200     0.0652     0.3811
   88    1.740   2236.14     0.0740     0.0026     0.0445     0.0174     0.0921     3.4887    27.8400     0.0642     0.4009
   89    1.760   2237.13     0.0750     0.0025     0.0459     0.0176     0.0942     3.4221    28.1600     0.0660     0.4268
   90    1.780   2238.16     0.0750     0.0026     0.0473     0.0178     0.0945     3.4290    28.4800     0.0660     0.4335
   91    1.800   2239.17     0.0763     0.0026     0.0498     0.0180     0.0968     3.3885    28.8000     0.0680     0.4508
   92    1.820   2240.20     0.0761     0.0027     0.0516     0.0182     0.0977     3.5728    29.1200     0.0686     0.4842
   93    1.840   2241.20     0.0752     0.0029     0.0525     0.0184     0.0972     3.8733    29.4400     0.0677     0.5005
   94    1.860   2242.16     0.0770     0.0028     0.0521     0.0186     0.0989     3.6382    29.7600     0.0691     0.4834
   95    1.880   2243.18     0.0783     0.0026     0.0530     0.0188     0.1007     3.3532    30.0800     0.0706     0.4882
   96    1.900   2244.18     0.0783     0.0027     0.0508     0.0190     0.1000     3.4880    30.4000     0.0696     0.4684
   97    1.920   2245.18     0.0763     0.0026     0.0490     0.0192     0.0969     3.3146    30.7200     0.0662     0.4531
   98    1.940   2246.20     0.0713     0.0026     0.0504     0.0194     0.0922     3.5936    31.0400     0.0612     0.4971
   99    1.960   2247.20     0.0682     0.0028     0.0511     0.0196     0.0897     4.0700    31.3600     0.0584     0.5410
  100    1.980   2248.17     0.0684     0.0026     0.0522     0.0198     0.0901     3.7586    31.6800     0.0584     0.5438
  101    2.000   2249.17     0.0681     0.0027     0.0535     0.0200     0.0905     3.8870    32.0000     0.0585     0.5687
  102    2.020   2250.20     0.0670     0.0026     0.0536     0.0202     0.0896     3.9566    32.3200     0.0573     0.5874
  103    2.040   2251.17     0.0680     0.0026     0.0548     0.0204     0.0906     3.8304    32.6400     0.0580     0.5758
  104    2.060   2252.16     0.0675     0.0027     0.0557     0.0206     0.0909     4.0120    32.9600     0.0580     0.6077
  105    2.080   2253.11     0.0694     0.0027     0.0560     0.0208     0.0927     3.8432    33.2800     0.0594     0.5859
  106    2.100   2254.14     0.0706     0.0028     0.0580     0.0210     0.0949     3.9817    33.6000     0.0613     0.6027
  107    2.120   2255.10     0.0715     0.0027     0.0553     0.0212     0.0947     3.8216    33.9200     0.0608     0.5601
  108    2.140   2256.15     0.0712     0.0030     0.0600     0.0214     0.0957     4.1915    34.2400     0.0614     0.6012
  109    2.160   2257.14     0.0714     0.0029     0.0630     0.0216     0.0975     4.0664    34.5600     0.0629     0.6451
  110    2.180   2258.13     0.0720     0.0028     0.0647     0.0218     0.0991     3.9434    34.8800     0.0642     0.6636
  111    2.200   2259.13     0.0725     0.0025     0.0641     0.0220     0.0993     3.5066    35.2000     0.0641     0.6502
  112    2.220   2260.15     0.0722     0.0027     0.0649     0.0222     0.0997     3.7403    35.5200     0.0641     0.6723
  113    2.240   2261.10     0.0714     0.0028     0.0652     0.0224     0.0987     3.8871    35.8400     0.0628     0.6765
  114    2.260   2262.09     0.0723     0.0025     0.0662     0.0226     0.1003     3.5086    36.1600     0.0641     0.6851
  115    2.280   2263.12     0.0777     0.0026     0.0640     0.0228     0.1049     3.3329    36.4800     0.0684     0.6156
  116    2.300   2264.15     0.0840     0.0029     0.0643     0.0230     0.1109     3.5293    36.8000     0.0741     0.5538
  117    2.320   2265.16     0.0886     0.0033     0.0637     0.0232     0.1153     3.6821    37.1200     0.0782     0.5156
  118    2.340   2266.12     0.0937     0.0033     0.0631     0.0234     0.1200     3.5600    37.4400     0.0826     0.4756
  119    2.360   2267.16     0.0966     0.0037     0.0592     0.0236     0.1227     3.8180    37.7600     0.0850     0.4554
  120    2.380   2268.14     0.1000     0.0038     0.0586     0.0238     0.1242     3.8352    38.0800     0.0862     0.3939
  121    2.400   2269.13     0.1003     0.0038     0.0604     0.0240     0.1253     3.8023    38.4000     0.0869     0.4085
  122    2.420   2270.13     0.0994     0.0044     0.0638     0.0242     0.1262     4.4374    38.7200     0.0874     0.4509
  123    2.440   2271.14     0.1043     0.0046     0.0579     0.0244     0.1293     4.4115    39.0400     0.0903     0.3906
  124    2.460   2272.16     0.1044     0.0043     0.0600     0.0246     0.1291     4.1103    39.3600     0.0898     0.3826
  125    2.480   2273.14     0.1059     0.0044     0.0594     0.0248     0.1309     4.1909    39.6800     0.0912     0.3819
  126    2.500   2274.15     0.1077     0.0045     0.0617     0.0250     0.1332     4.1569    40.0000     0.0932     0.3848
  127    2.520   2275.16     0.1101     0.0048     0.0621     0.0252     0.1366     4.4513    40.3200     0.0963     0.3936
  128    2.540   2276.18     0.1081     0.0050     0.0629     0.0254     0.1341     4.6217    40.6400     0.0934     0.3901
  129    2.560   2277.16     0.1094     0.0052     0.0619     0.0256     0.1353     4.7937    40.9600     0.0944     0.3833
  130    2.580   2278.16     0.1102     0.0056     0.0601     0.0258     0.1356     5.0193    41.2800     0.0944     0.3681
  131    2.600   2279.17     0.1120     0.0054     0.0610     0.0260     0.1374     4.8498    41.6000     0.0958     0.3606
  132    2.620   2285.61     0.1104     0.0053     0.0589     0.0262     0.1356     4.7816    41.9200     0.0937     0.3621
  133    2.640   2306.63     0.1092     0.0056     0.0551     0.0264     0.1329     5.0460    42.2400     0.0907     0.3289
  134    2.660   2327.64     0.1081     0.0051     0.0516     0.0266     0.1302     4.6383    42.5600     0.0877     0.2956
  135    2.680   2335.08     0.1023     0.0049     0.0528     0.0268     0.1248     4.7544    42.8800     0.0819     0.3274
  136    2.700   2336.08     0.0985     0.0046     0.0609     0.0270     0.1232     4.6609    43.2000     0.0800     0.3960
  137    2.720   2337.11     0.0965     0.0046     0.0633     0.0272     0.1229     4.8120    43.5200     0.0793     0.4485
  138    2.740   2338.09     0.0959     0.0048     0.0673     0.0274     0.1237     5.0020    43.8400     0.0799     0.4854
  139    2.760   2339.12     0.0971     0.0045     0.0707     0.0276     0.1265     4.6347    44.1600     0.0823     0.5131
  140    2.780   2340.12     0.0996     0.0042     0.0715     0.0278     0.1299     4.1778    44.4800     0.0854     0.5203
  141    2.800   2341.10     0.0991     0.0041     0.0679     0.0280     0.1275     4.1558    44.8000     0.0827     0.4788
  142    2.820   2342.10     0.0955     0.0041     0.0707     0.0282     0.1245     4.2701    45.1200     0.0794     0.5154
  143    2.840   2343.11     0.0933     0.0042     0.0747     0.0284     0.1241     4.4725    45.4400     0.0787     0.5729
  144    2.860   2344.11     0.0949     0.0042     0.0762     0.0286     0.1267     4.4840    45.7600     0.0810     0.5829
  145    2.880   2345.14     0.0968     0.0044     0.0761     0.0288     0.1289     4.5456    46.0800     0.0828     0.5766
  146    2.900   2346.12     0.0976     0.0043     0.0744     0.0290     0.1290     4.4906    46.4000     0.0826     0.5538
  147    2.920   2347.12     0.0989     0.0041     0.0719     0.0292     0.1296     4.1755    46.7200     0.0829     0.5294
  148    2.940   2348.12     0.0968     0.0044     0.0715     0.0294     0.1269     4.5234    47.0400     0.0798     0.5276
  149    2.960   2349.10     0.0985     0.0044     0.0717     0.0296     0.1282     4.4767    47.3600     0.0808     0.5081
  150    2.980   2350.07     0.0988     0.0046     0.0728     0.0298     0.1292     4.6075    47.6800     0.0815     0.5221
  151    3.000   2351.08     0.0956     0.0047     0.0712     0.0300     0.1260     4.8686    48.0000     0.0780     0.5434
  152    3.020   2352.09     0.0965     0.0044     0.0699     0.0302     0.1262     4.5799    48.3200     0.0779     0.5218
  153    3.040   2353.05     0.0939     0.0043     0.0698     0.0304     0.1232     4.5577    48.6400     0.0746     0.5273
  154    3.060   2354.06     0.0927     0.0040     0.0728     0.0306     0.1226     4.2658    48.9600     0.0737     0.5525
  155    3.080   2355.08     0.0920     0.0040     0.0742     0.0308     0.1232     4.3550    49.2800     0.0739     0.5867
  156    3.100   2356.06     0.0920     0.0042     0.0776     0.0310     0.1241     4.5743    49.6000     0.0745     0.6098
  157    3.120   2357.05     0.0944     0.0040     0.0795     0.0312     0.1277     4.2141    49.9200     0.0778     0.6190
  158    3.140   2358.08     0.0986     0.0038     0.0795     0.0314     0.1318     3.8526    50.2400     0.0816     0.5843
  159    3.160   2359.05     0.1016     0.0036     0.0765     0.0316     0.1342     3.6288    50.5600     0.0837     0.5494
  160    3.180   2360.05     0.1014     0.0040     0.0714     0.0318     0.1324     3.8867    50.8800     0.0816     0.5157
  161    3.200   2361.04     0.1035     0.0043     0.0653     0.0320     0.1319     4.1447    51.2000     0.0807     0.4430
  162    3.220   2362.05     0.1024     0.0046     0.0684     0.0322     0.1312     4.4743    51.5200     0.0797     0.4569
  163    3.240   2363.04     0.1005     0.0046     0.0679     0.0324     0.1293     4.6108    51.8400     0.0775     0.4672
  164    3.260   2364.03     0.1008     0.0048     0.0652     0.0326     0.1289     4.7259    52.1600     0.0768     0.4481
  165    3.280   2367.31     0.1006     0.0049     0.0676     0.0328     0.1286     4.8193    52.4800     0.0762     0.4448
  166    3.300   2371.95     0.0997     0.0048     0.0703     0.0330     0.1288     4.7663    52.8000     0.0760     0.4780
  167    3.320   2376.58     0.0988     0.0047     0.0721     0.0332     0.1290     4.6602    53.1200     0.0759     0.5113
  168    3.340   2378.21     0.0978     0.0045     0.0717     0.0334     0.1279     4.5938    53.4400     0.0745     0.5135
  169    3.360   2379.21     0.0969     0.0044     0.0739     0.0336     0.1276     4.5618    53.7600     0.0738     0.5352
  170    3.380   2380.20     0.0972     0.0042     0.0757     0.0338     0.1286     4.2767    54.0800     0.0746     0.5496
  171    3.400   2381.19     0.0972     0.0039     0.0810     0.0340     0.1303     4.0053    54.4000     0.0759     0.5900
  172    3.420   2382.18     0.1002     0.0038     0.0860     0.0342     0.1358     3.7963    54.7200     0.0810     0.6224
  173    3.440   2383.19     0.1012     0.0040     0.0880     0.0344     0.1379     3.9540    55.0400     0.0829     0.6405
  174    3.460   2384.16     0.1029     0.0041     0.0882     0.0346     0.1399     4.0355    55.3600     0.0846     0.6344
  175    3.480   2385.16     0.1024     0.0042     0.0850     0.0348     0.1392     4.0199    55.6800     0.0835     0.6329
  176    3.500   2386.17     0.1091     0.0042     0.0749     0.0350     0.1416     3.8316    56.0000     0.0856     0.4954
  177    3.520   2387.18     0.1101     0.0045     0.0712     0.0352     0.1403     3.9955    56.3200     0.0840     0.4389
  178    3.540   2388.14     0.1034     0.0044     0.0716     0.0354     0.1332     4.2132    56.6400     0.0765     0.4650
  179    3.560   2389.13     0.0987     0.0045     0.0748     0.0356     0.1297     4.5432    56.9600     0.0727     0.5250
  180    3.580   2390.12     0.0964     0.0046     0.0758     0.0358     0.1279     4.7905    57.2800     0.0706     0.5565
  181    3.600   2391.12     0.0949     0.0045     0.0772     0.0360     0.1273     4.7753    57.6000     0.0697     0.5895
  182    3.620   2392.15     0.0914     0.0045     0.0801     0.0362     0.1248     4.9243    57.9200     0.0668     0.6485
  183    3.640   2393.14     0.0898     0.0044     0.0844     0.0364     0.1249     4.9165    58.2400     0.0667     0.7083
  184    3.660   2394.16     0.0928     0.0042     0.0871     0.0366     0.1286     4.5460    58.5600     0.0701     0.6943
  185    3.680   2395.14     0.0984     0.0039     0.0915     0.0368     0.1365     4.0501    58.8800     0.0776     0.6957
  186    3.700   2396.11     0.1044     0.0037     0.0881     0.0370     0.1418     3.5323    59.2000     0.0826     0.6321
  187    3.720   2397.12     0.1079     0.0038     0.0946     0.0372     0.1474     3.5232    59.5200     0.0879     0.6480
  188    3.740   2398.11     0.1181     0.0043     0.0949     0.0374     0.1577     3.6938    59.8400     0.0978     0.5805
  189    3.760   2399.15     0.1287     0.0045     0.0969     0.0376     0.1698     3.5101    60.1600     0.1096     0.5488
  190    3.780   2400.11     0.1325     0.0048     0.0862     0.0378     0.1703     3.6400    60.4800     0.1099     0.4762
  191    3.800   2401.15     0.1322     0.0051     0.0825     0.0380     0.1669     3.8137    60.8000     0.1061     0.4213
  192    3.820   2402.14     0.1329     0.0053     0.0819     0.0382     0.1673     4.0206    61.1200     0.1062     0.4110
  193    3.840   2403.16     0.1325     0.0054     0.0884     0.0384     0.1690     4.0421    61.4400     0.1075     0.4505
  194    3.860   2404.12     0.1284     0.0056     0.0895     0.0386     0.1660     4.3524    61.7600     0.1042     0.4874
  195    3.880   2405.12     0.1229     0.0056     0.0864     0.0388     0.1597     4.5410    62.0800     0.0977     0.5018
  196    3.900   2406.11     0.1184     0.0051     0.0829     0.0390     0.1529     4.2793    62.4000     0.0905     0.4775
  197    3.920   2407.12     0.1148     0.0053     0.0897     0.0392     0.1512     4.6032    62.7200     0.0885     0.5377
  198    3.940   2408.14     0.1146     0.0052     0.0956     0.0394     0.1537     4.6376    63.0400     0.0907     0.5918
  199    3.960   2409.13     0.1105     0.0051     0.1000     0.0396     0.1522     4.5660    63.3600     0.0888     0.6717
  200    3.980   2410.13     0.1108     0.0048     0.1009     0.0398     0.1533     4.3176    63.6800     0.0896     0.6835
  201    4.000   2411.10     0.1129     0.0043     0.0939     0.0400     0.1535     3.8960    64.0000     0.0895     0.6344
  202    4.020   2412.08     0.1174     0.0044     0.0978     0.0402     0.1575     3.6897    64.3200     0.0932     0.5930
  203    4.040   2413.07     0.1151     0.0042     0.1013     0.0404     0.1575     3.6448    64.6400     0.0929     0.6522
  204    4.060   2414.09     0.1187     0.0044     0.0989     0.0406     0.1602     3.7541    64.9600     0.0952     0.6094
  205    4.080   2415.07     0.1194     0.0044     0.1007     0.0408     0.1617     3.7350    65.2800     0.0965     0.6227
  206    4.100   2416.07     0.1255     0.0052     0.0993     0.0410     0.1673     4.1925    65.6000     0.1017     0.5738
  207    4.120   2417.07     0.1286     0.0055     0.0906     0.0412     0.1694     4.2831    65.9200     0.1035     0.5402
  208    4.140   2418.04     0.1311     0.0052     0.0837     0.0414     0.1665     3.9778    66.2400     0.1003     0.4267
  209    4.160   2419.09     0.1297     0.0055     0.0771     0.0416     0.1622     4.1683    66.5600     0.0957     0.3756
  210    4.180   2420.06     0.1238     0.0053     0.0823     0.0418     0.1581     4.2738    66.8800     0.0912     0.4372
  211    4.200   2421.07     0.1185     0.0053     0.0885     0.0420     0.1549     4.4950    67.2000     0.0877     0.5088
  212    4.220   2422.08     0.1193     0.0056     0.0940     0.0422     0.1580     4.7073    67.5200     0.0905     0.5529
  213    4.240   2423.04     0.1188     0.0055     0.0990     0.0424     0.1596     4.6434    67.8400     0.0918     0.5965
  214    4.260   2424.05     0.1281     0.0055     0.0977     0.0426     0.1697     4.3110    68.1600     0.1015     0.5544
  215    4.280   2425.04     0.1295     0.0052     0.0999     0.0428     0.1716     3.9795    68.4800     0.1031     0.5561
  216    4.300   2426.06     0.1300     0.0049     0.0924     0.0430     0.1705     3.7737    68.8000     0.1017     0.5265
  217    4.320   2427.10     0.1335     0.0053     0.0912     0.0432     0.1718     3.9506    69.1200     0.1027     0.4681
  218    4.340   2428.09     0.1360     0.0053     0.0922     0.0434     0.1739     3.9225    69.4400     0.1045     0.4479
  219    4.360   2429.06     0.1338     0.0051     0.1011     0.0436     0.1748     3.8387    69.7600     0.1050     0.5127
  220    4.380   2430.05     0.1386     0.0054     0.0976     0.0438     0.1802     3.9090    70.0800     0.1101     0.5001
  221    4.400   2431.05     0.1337     0.0056     0.0978     0.0440     0.1745     4.1884    70.4000     0.1041     0.5095
  222    4.420   2432.06     0.1296     0.0053     0.1001     0.0442     0.1713     4.0700    70.7200     0.1005     0.5468
  223    4.440   2433.04     0.1302     0.0051     0.1031     0.0444     0.1730     3.9030    71.0400     0.1020     0.5649
  224    4.460   2434.06     0.1277     0.0055     0.1007     0.0446     0.1702     4.3054    71.3600     0.0988     0.5724
  225    4.480   2435.03     0.1288     0.0057     0.1015     0.0448     0.1710     4.3499    71.6800     0.0993     0.5591
  226    4.500   2436.00     0.1332     0.0059     0.1020     0.0450     0.1762     4.3944    72.0000     0.1042     0.5516
  227    4.520   2437.03     0.1380     0.0058     0.1015     0.0452     0.1804     4.2878    72.3200     0.1081     0.5176
  228    4.540   2437.99     0.1421     0.0057     0.0991     0.0454     0.1847     4.0671    72.6400     0.1120     0.4990
  229    4.560   2439.00     0.1442     0.0052     0.0971     0.0456     0.1850     3.5830    72.9600     0.1121     0.4616
  230    4.580   2450.02     0.1462     0.0054     0.0958     0.0458     0.1866     3.7927    73.2800     0.1133     0.4464
  231    4.600   2466.93     0.1506     0.0057     0.0946     0.0460     0.1905     4.0100    73.6000     0.1169     0.4202
  232    4.620   2480.08     0.1549     0.0057     0.0939     0.0462     0.1945     3.7087    73.9200     0.1206     0.3981
  233    4.640   2481.08     0.1527     0.0061     0.0927     0.0464     0.1911     3.9597    74.2400     0.1169     0.3868
  234    4.660   2482.07     0.1537     0.0057     0.0800     0.0466     0.1907     3.7718    74.5600     0.1162     0.3574
  235    4.680   2483.06     0.1556     0.0059     0.0824     0.0468     0.1888     3.7965    74.8800     0.1139     0.2828
  236    4.700   2484.06     0.1526     0.0057     0.0886     0.0470     0.1889     3.7367    75.2000     0.1137     0.3487
  237    4.720   2485.05     0.1459     0.0061     0.0928     0.0472     0.1844     4.1009    75.5200     0.1089     0.4082
  238    4.740   2486.05     0.1350     0.0055     0.0872     0.0474     0.1730     4.0643    75.8400     0.0971     0.4431
  239    4.760   2487.05     0.1322     0.0053     0.0912     0.0476     0.1698     3.9779    76.1600     0.0936     0.4493
  240    4.780   2488.05     0.1260     0.0054     0.0999     0.0478     0.1670     4.2413    76.4800     0.0905     0.5502
  241    4.800   2489.08     0.1251     0.0049     0.1068     0.0480     0.1691     3.9844    76.8000     0.0923     0.6142
  242    4.820   2490.07     0.1291     0.0044     0.1123     0.0482     0.1755     3.4124    77.1200     0.0984     0.6335
  243    4.840   2491.08     0.1353     0.0045     0.1167     0.0484     0.1839     3.3473    77.4400     0.1065     0.6331
  244    4.860   2492.05     0.1416     0.0045     0.1174     0.0486     0.1910     3.1960    77.7600     0.1132     0.6090
  245    4.880   2493.05     0.1411     0.0047     0.1181     0.0488     0.1909     3.3327    78.0800     0.1128     0.6198
  246    4.900   2494.03     0.1472     0.0047     0.1149     0.0490     0.1964     3.1759    78.4000     0.1180     0.5767
  247    4.920   2495.06     0.1438     0.0045     0.1058     0.0492     0.1892     3.1363    78.7200     0.1105     0.5327
  248    4.940   2496.06     0.1429     0.0049     0.1041     0.0494     0.1867     3.4772    79.0400     0.1077     0.5109
  249    4.960   2497.04     0.1505     0.0051     0.1094     0.0496     0.1952     3.3517    79.3600     0.1158     0.4915
  250    4.980   2498.05     0.1448     0.0053     0.1152     0.0498     0.1921     3.6206    79.6800     0.1124     0.5591
  251    5.000   2499.05     0.1455     0.0051     0.1086     0.0500     0.1930     3.5157    80.0000     0.1130     0.5583
  252    5.020   2500.03     0.1492     0.0051     0.1027     0.0502     0.1925     3.4207    80.3200     0.1122     0.4722
  253    5.040   2500.99     0.1471     0.0052     0.1028     0.0504     0.1905     3.5894    80.6400     0.1098     0.4821
  254    5.060   2501.98     0.1509     0.0050     0.1110     0.0506     0.1962     3.2909    80.9600     0.1153     0.4981
  255    5.080   2503.00     0.1582     0.0052     0.1163     0.0508     0.2062     3.3549    81.2800     0.1250     0.5088
  256    5.100   2504.01     0.1643     0.0053     0.1129     0.0510     0.2124     3.2320    81.6000     0.1308     0.4866
  257    5.120   2505.03     0.1657     0.0055     0.1133     0.0512     0.2128     3.2941    81.9200     0.1309     0.4655
  258    5.140   2506.01     0.1666     0.0053     0.1049     0.0514     0.2125     3.2090    82.2400     0.1303     0.4438
  259    5.160   2506.92     0.1718     0.0057     0.1040     0.0516     0.2156     3.3509    82.5600     0.1330     0.3956
  260    5.180   2507.89     0.1739     0.0058     0.1030     0.0518     0.2169     3.3493    82.8800     0.1341     0.3788
  261    5.200   2508.82     0.1729     0.0060     0.1072     0.0520     0.2172     3.4527    83.2000     0.1340     0.3992
  262    5.220   2509.83     0.1696     0.0061     0.1077     0.0522     0.2151     3.5577    83.5200     0.1316     0.4263
  263    5.240   2510.80     0.1715     0.0063     0.1057     0.0524     0.2159     3.6525    83.8400     0.1321     0.4049
  264    5.260   2511.80     0.1733     0.0062     0.1088     0.0526     0.2183     3.5759    84.1600     0.1342     0.4081
  265    5.280   2512.80     0.1709     0.0066     0.1108     0.0528     0.2173     3.8551    84.4800     0.1329     0.4343
  266    5.300   2513.91     0.1685     0.0063     0.1127     0.0530     0.2154     3.6842    84.8000     0.1306     0.4498
  267    5.320   2514.88     0.1685     0.0061     0.1155     0.0532     0.2167     3.6298    85.1200     0.1316     0.4674
  268    5.340   2515.88     0.1689     0.0056     0.1187     0.0534     0.2189     3.3143    85.4400     0.1334     0.4908
  269    5.360   2516.82     0.1707     0.0060     0.1217     0.0536     0.2216     3.4963    85.7600     0.1358     0.4967
  270    5.380   2517.79     0.1686     0.0059     0.1242     0.0538     0.2202     3.4956    86.0800     0.1341     0.5144
  271    5.400   2518.83     0.1715     0.0059     0.1287     0.0540     0.2251     3.4874    86.4000     0.1387     0.5303
  272    5.420   2519.77     0.1742     0.0062     0.1310     0.0542     0.2291     3.5778    86.7200     0.1424     0.5369
  273    5.440   2520.62     0.1774     0.0063     0.1312     0.0544     0.2325     3.5827    87.0400     0.1454     0.5277
  274    5.460   2521.43     0.1792     0.0059     0.1316     0.0546     0.2341     3.3104    87.3600     0.1468     0.5189
  275    5.480   2522.29     0.1781     0.0058     0.1310     0.0548     0.2334     3.2653    87.6800     0.1457     0.5285
  276    5.500   2523.29     0.1824     0.0059     0.1286     0.0550     0.2363     3.2364    88.0000     0.1483     0.4934
  277    5.520   2524.29     0.1783     0.0059     0.1309     0.0552     0.2329     3.2825    88.3200     0.1446     0.5183
  278    5.540   2525.29     0.1789     0.0058     0.1320     0.0554     0.2346     3.2328    88.6400     0.1460     0.5296
  279    5.560   2526.34     0.1829     0.0059     0.1264     0.0556     0.2366     3.2225    88.9600     0.1477     0.4898
  280    5.580   2527.32     0.1812     0.0058     0.1285     0.0558     0.2347     3.2139    89.2800     0.1454     0.4920
  281    5.600   2528.25     0.1815     0.0055     0.1360     0.0560     0.2374     3.0566    89.6000     0.1478     0.5214
  282    5.620   2529.28     0.1839     0.0052     0.1397     0.0562     0.2427     2.8396    89.9200     0.1527     0.5482
  283    5.640   2530.26     0.1849     0.0057     0.1361     0.0564     0.2426     3.1022    90.2400     0.1524     0.5311
  284    5.660   2531.30     0.1903     0.0055     0.1344     0.0566     0.2465     2.8827    90.5600     0.1559     0.4959
  285    5.680   2532.27     0.1916     0.0060     0.1338     0.0568     0.2483     3.1036    90.8800     0.1574     0.4974
  286    5.700   2533.23     0.1934     0.0062     0.1256     0.0570     0.2481     3.2076    91.2000     0.1569     0.4657
  287    5.720   2534.22     0.1929     0.0065     0.1153     0.0572     0.2420     3.3704    91.5200     0.1504     0.3958
  288    5.740   2535.21     0.1907     0.0061     0.1120     0.0574     0.2380     3.1628    91.8400     0.1461     0.3776
  289    5.760   2536.22     0.1903     0.0065     0.1199     0.0576     0.2397     3.3962    92.1600     0.1476     0.4068
  290    5.780   2537.21     0.1835     0.0065     0.1249     0.0578     0.2352     3.5034    92.4800     0.1427     0.4578
  291    5.800   2538.21     0.1786     0.0064     0.1290     0.0580     0.2323     3.5845    92.8000     0.1395     0.5004
  292    5.820   2539.20     0.1725     0.0058     0.1314     0.0582     0.2273     3.3010    93.1200     0.1342     0.5400
  293    5.840   2540.19     0.1699     0.0055     0.1301     0.0584     0.2247     3.2388    93.4400     0.1313     0.5495
  294    5.860   2541.20     0.1689     0.0054     0.1339     0.0586     0.2245     3.1980    93.7600     0.1308     0.5641
  295    5.880   2542.19     0.1651     0.0051     0.1366     0.0588     0.2221     3.1069    94.0800     0.1280     0.6004
  296    5.900   2543.19     0.1623     0.0049     0.1410     0.0590     0.2214     3.0453    94.4000     0.1270     0.6432
  297    5.920   2544.15     0.1661     0.0049     0.1364     0.0592     0.2239     2.9341    94.7200     0.1292     0.6079
  298    5.940   2545.16     0.1733     0.0049     0.1400     0.0594     0.2316     2.8471    95.0400     0.1365     0.5805
  299    5.960   2546.12     0.1760     0.0051     0.1393     0.0596     0.2350     2.9031    95.3600     0.1396     0.5784
  300    5.980   2547.19     0.1803     0.0053     0.1338     0.0598     0.2370     3.0056    95.6800     0.1413     0.5325
  301    6.000   2548.17     0.1857     0.0058     0.1266     0.0600     0.2398     3.1348    96.0000     0.1438     0.4777
  302    6.020   2549.16     0.1876     0.0057     0.1237     0.0602     0.2395     3.0568    96.3200     0.1431     0.4428
  303    6.040   2550.10     0.1884     0.0060     0.1240     0.0604     0.2405     3.1839    96.6400     0.1439     0.4420
  304    6.060   2551.07     0.1870     0.0058     0.1158     0.0606     0.2366     3.1048    96.9600     0.1396     0.4115
  305    6.080   2552.08     0.1871     0.0062     0.1222     0.0608     0.2379     3.2778    97.2800     0.1406     0.4279
  306    6.100   2553.08     0.1856     0.0062     0.1280     0.0610     0.2383     3.2997    97.6000     0.1407     0.4575
  307    6.120   2554.10     0.1765     0.0059     0.1272     0.0612     0.2305     3.3582    97.9200     0.1326     0.5079
  308    6.140   2555.12     0.1716     0.0057     0.1264     0.0614     0.2250     3.3176    98.2400     0.1268     0.5185
  309    6.160   2556.11     0.1722     0.0056     0.1288     0.0616     0.2262     3.2633    98.5600     0.1277     0.5244
  310    6.180   2557.08     0.1705     0.0053     0.1304     0.0618     0.2256     3.0777    98.8800     0.1267     0.5465
  311    6.200   2558.07     0.1693     0.0055     0.1389     0.0620     0.2266     3.2393    99.2000     0.1274     0.5849
  312    6.220   2559.07     0.1699     0.0054     0.1442     0.0622     0.2292     3.1815    99.5200     0.1296     0.6080
  313    6.240   2560.07     0.1716     0.0049     0.1451     0.0624     0.2323     2.8173    99.8400     0.1325     0.6210
  314    6.260   2561.09     0.1715     0.0052     0.1491     0.0626     0.2339     2.9730   100.1600     0.1337     0.6424
  315    6.280   2562.14     0.1766     0.0055     0.1485     0.0628     0.2393     3.1288   100.4800     0.1388     0.6237
  316    6.300   2563.13     0.1755     0.0061     0.1443     0.0630     0.2367     3.4588   100.8000     0.1359     0.6084
  317    6.320   2564.12     0.1743     0.0068     0.1473     0.0632     0.2355     3.8505   101.1200     0.1344     0.6152
  318    6.340   2565.11     0.1786     0.0067     0.1512     0.0634     0.2421     3.7864   101.4400     0.1406     0.6231
  319    6.360   2580.67     0.1863     0.0067     0.1456     0.0636     0.2482     3.7118   101.7600     0.1465     0.5753
  320    6.380   2600.38     0.1934     0.0065     0.1400     0.0638     0.2530     3.5932   102.0800     0.1509     0.5206
  321    6.400   2620.09     0.2004     0.0064     0.1377     0.0640     0.2577     3.2843   102.4000     0.1553     0.4658
  322    6.420   2621.97     0.1963     0.0063     0.1416     0.0642     0.2555     3.1902   102.7200     0.1528     0.5032
  323    6.440   2622.63     0.1995     0.0064     0.1466     0.0644     0.2601     3.2414   103.0400     0.1571     0.5086
  324    6.460   2623.25     0.1973     0.0061     0.1514     0.0646     0.2603     3.0557   103.3600     0.1569     0.5448
  325    6.480   2623.87     0.1960     0.0063     0.1533     0.0648     0.2603     3.2096   103.6800     0.1566     0.5630
  326    6.500   2624.52     0.1952     0.0067     0.1542     0.0650     0.2598     3.4220   104.0000     0.1558     0.5698
  327    6.520   2625.13     0.1928     0.0064     0.1535     0.0652     0.2574     3.3150   104.3200     0.1531     0.5797
  328    6.540   2625.73     0.1892     0.0063     0.1515     0.0654     0.2532     3.3044   104.6400     0.1485     0.5843
  329    6.560   2626.38     0.1948     0.0061     0.1517     0.0656     0.2583     3.2291   104.9600     0.1534     0.5580
  330    6.580   2627.01     0.1904     0.0061     0.1565     0.0658     0.2549     3.2439   105.2800     0.1496     0.5873
  331    6.600   2627.66     0.1921     0.0062     0.1582     0.0660     0.2586     3.2588   105.6000     0.1530     0.6037
  332    6.620   2628.29     0.1911     0.0065     0.1579     0.0662     0.2576     3.4017   105.9200     0.1517     0.6074
  333    6.640   2628.89     0.1924     0.0061     0.1572     0.0664     0.2582     3.1778   106.2400     0.1519     0.5933
  334    6.660   2631.59     0.1923     0.0061     0.1591     0.0666     0.2589     3.1747   106.5600     0.1524     0.6039
  335    6.680   2644.57     0.1909     0.0057     0.1605     0.0668     0.2581     2.9695   106.8800     0.1513     0.6164
  336    6.700   2657.56     0.1896     0.0059     0.1619     0.0670     0.2573     3.0701   107.2000     0.1501     0.6288
  337    6.720   2669.03     0.1875     0.0055     0.1659     0.0672     0.2561     2.8725   107.5200     0.1486     0.6480
  338    6.740   2670.07     0.1824     0.0053     0.1704     0.0674     0.2537     2.8808   107.8400     0.1459     0.7016
  339    6.760   2671.08     0.1864     0.0053     0.1665     0.0676     0.2568     2.8540   108.1600     0.1487     0.6739
  340    6.780   2672.11     0.1883     0.0054     0.1659     0.0678     0.2578     2.8745   108.4800     0.1493     0.6532
  341    6.800   2673.14     0.1867     0.0052     0.1698     0.0680     0.2581     2.7997   108.8000     0.1493     0.6833
  342    6.820   2674.14     0.1874     0.0050     0.1695     0.0682     0.2578     2.6466   109.1200     0.1486     0.6690
  343    6.840   2675.13     0.1880     0.0052     0.1701     0.0684     0.2601     2.7556   109.4400     0.1506     0.6857
  344    6.860   2676.15     0.1874     0.0055     0.1688     0.0686     0.2583     2.9405   109.7600     0.1485     0.6750
  345    6.880   2677.12     0.1889     0.0054     0.1667     0.0688     0.2592     2.8337   110.0800     0.1491     0.6601
  346    6.900   2678.16     0.1911     0.0053     0.1668     0.0690     0.2613     2.8011   110.4000     0.1509     0.6500
  347    6.920   2679.16     0.1954     0.0053     0.1674     0.0692     0.2656     2.6894   110.7200     0.1549     0.6322
  348    6.940   2680.17     0.1957     0.0059     0.1673     0.0694     0.2656     3.0105   111.0400     0.1546     0.6278
  349    6.960   2681.17     0.1938     0.0057     0.1729     0.0696     0.2660     2.9406   111.3600     0.1546     0.6612
  350    6.980   2682.17     0.1943     0.0056     0.1703     0.0698     0.2665     2.8728   111.6800     0.1548     0.6598
  351    7.000   2683.15     0.1955     0.0054     0.1705     0.0700     0.2670     2.7822   112.0000     0.1550     0.6470
  352    7.020   2684.14     0.1958     0.0054     0.1690     0.0702     0.2666     2.7418   112.3200     0.1543     0.6379
  353    7.040   2685.14     0.1945     0.0055     0.1716     0.0704     0.2664     2.7950   112.6400     0.1538     0.6566
  354    7.060   2686.15     0.1965     0.0057     0.1740     0.0706     0.2692     2.8874   112.9600     0.1563     0.6556
  355    7.080   2687.16     0.1990     0.0058     0.1733     0.0708     0.2719     2.9392   113.2800     0.1586     0.6484
  356    7.100   2688.19     0.2034     0.0056     0.1680     0.0710     0.2745     2.7647   113.6000     0.1609     0.6113
  357    7.120   2689.19     0.2080     0.0060     0.1682     0.0712     0.2789     2.8678   113.9200     0.1649     0.5913
  358    7.140   2690.16     0.2155     0.0063     0.1603     0.0714     0.2837     2.9351   114.2400     0.1695     0.5366
  359    7.160   2691.15     0.2189     0.0061     0.1599     0.0716     0.2862     2.8052   114.5600     0.1717     0.5174
  360    7.180   2692.15     0.2207     0.0067     0.1618     0.0718     0.2883     3.0270   114.8800     0.1734     0.5135
  361    7.200   2693.16     0.2269     0.0065     0.1551     0.0720     0.2932     2.8819   115.2000     0.1780     0.4833
  362    7.220   2694.20     0.2318     0.0066     0.1527     0.0722     0.2953     2.8673   115.5200     0.1797     0.4386
  363    7.240   2695.20     0.2310     0.0068     0.1620     0.0724     0.2980     2.9782   115.8400     0.1822     0.4781
  364    7.260   2696.18     0.2370     0.0070     0.1619     0.0726     0.3050     2.9880   116.1600     0.1889     0.4732
  365    7.280   2697.26     0.2381     0.0069     0.1587     0.0728     0.3056     2.8958   116.4800     0.1891     0.4646
  366    7.300   2698.26     0.2359     0.0068     0.1567     0.0730     0.3017     2.8778   116.8000     0.1849     0.4522
  367    7.320   2699.27     0.2322     0.0072     0.1640     0.0732     0.2998     3.1147   117.1200     0.1827     0.4797
  368    7.340   2700.23     0.2325     0.0071     0.1711     0.0734     0.3036     3.0512   117.4400     0.1862     0.5155
  369    7.360   2701.28     0.2341     0.0069     0.1722     0.0736     0.3062     2.9575   117.7600     0.1884     0.5206
  370    7.380   2702.27     0.2299     0.0066     0.1711     0.0738     0.3018     2.8704   118.0800     0.1837     0.5303
  371    7.400   2703.27     0.2322     0.0067     0.1747     0.0740     0.3055     2.8763   118.4000     0.1871     0.5365
  372    7.420   2704.29     0.2290     0.0065     0.1740     0.0742     0.3018     2.8296   118.7200     0.1830     0.5410
  373    7.440   2705.27     0.2265     0.0062     0.1739     0.0744     0.2994     2.7501   119.0400     0.1803     0.5495
  374    7.460   2706.25     0.2267     0.0063     0.1772     0.0746     0.3010     2.8061   119.3600     0.1816     0.5636
  375    7.480   2707.26     0.2265     0.0061     0.1776     0.0748     0.3008     2.6916   119.6800     0.1812     0.5644
  376    7.500   2708.25     0.2249     0.0062     0.1785     0.0750     0.2997     2.7729   120.0000     0.1797     0.5729
  377    7.520   2709.23     0.2216     0.0063     0.1776     0.0752     0.2964     2.8525   120.3200     0.1761     0.5842
  378    7.540   2710.26     0.2167     0.0061     0.1763     0.0754     0.2912     2.8076   120.6400     0.1705     0.5983
  379    7.560   2711.29     0.2113     0.0064     0.1731     0.0756     0.2843     2.9997   120.9600     0.1634     0.6018
  380    7.580   2712.27     0.2053     0.0060     0.1710     0.0758     0.2774     2.9117   121.2800     0.1561     0.6141
  381    7.600   2713.24     0.1994     0.0061     0.1714     0.0760     0.2714     3.0541   121.6000     0.1498     0.6369
  382    7.620   2714.26     0.1936     0.0060     0.1741     0.0762     0.2658     3.1156   121.9200     0.1439     0.6657
  383    7.640   2715.25     0.1934     0.0059     0.1821     0.0764     0.2686     3.0621   122.2400     0.1464     0.7020
  384    7.660   2716.27     0.1935     0.0059     0.1882     0.0766     0.2721     3.0321   122.5600     0.1496     0.7395
  385    7.680   2717.31     0.1961     0.0052     0.1892     0.0768     0.2753     2.6670   122.8800     0.1524     0.7339
  386    7.700   2718.28     0.2009     0.0053     0.1893     0.0770     0.2798     2.6581   123.2000     0.1566     0.7085
  387    7.720   2719.31     0.2035     0.0057     0.1952     0.0772     0.2847     2.8265   123.5200     0.1612     0.7205
  388    7.740   2720.28     0.2066     0.0057     0.1980     0.0774     0.2897     2.7745   123.8400     0.1659     0.7267
  389    7.760   2721.30     0.2124     0.0058     0.1914     0.0776     0.2937     2.7539   124.1600     0.1696     0.6846
  390    7.780   2722.35     0.2193     0.0061     0.1866     0.0778     0.2977     2.7793   124.4800     0.1732     0.6284
  391    7.800   2723.37     0.2167     0.0066     0.1878     0.0780     0.2949     3.0138   124.8000     0.1701     0.6357
  392    7.820   2724.34     0.2178     0.0064     0.1924     0.0782     0.2979     2.9273   125.1200     0.1728     0.6510
  393    7.840   2725.39     0.2199     0.0066     0.1984     0.0784     0.3018     3.0277   125.4400     0.1764     0.6620
  394    7.860   2726.34     0.2809     0.0078     0.1896     0.0786     0.3636     2.8093   125.7600     0.2378     0.4975
  395    7.880   2727.35     0.3028     0.0098     0.1824     0.0788     0.3800     3.2495   126.0800     0.2539     0.4135
  396    7.900   2728.40     0.4071     0.0136     0.1508     0.0790     0.4701     3.5075   126.4000     0.3437     0.2066
  397    7.920   2729.38     0.5114     0.0186     0.0980     0.0792     0.5578     3.6948   126.7200     0.4311     0.0732
  398    7.940   2730.38     0.6135     0.0236     0.0700     0.0794     0.6401     3.9108   127.0400     0.5131    -0.0310
  399    7.960   2731.40     0.7049     0.0278     0.0321     0.0796     0.7255     3.9712   127.3600     0.5981    -0.0513
  400    7.980   2732.40     0.7222     0.0312    -0.0106     0.0798     0.7274     4.3266   127.6800     0.5998    -0.1123
  401    8.000   2733.38     0.6970     0.0333    -0.0184     0.0800     0.6927     4.7451   128.0000     0.5647    -0.1597
  402    8.020   2734.36     0.6716     0.0335    -0.0271     0.0802     0.6613     4.9366   128.3200     0.5330    -0.1964
  403    8.040   2735.38     0.6143     0.0314    -0.0285     0.0804     0.6037     5.0281   128.6400     0.4751    -0.2222
  404    8.060   2736.40     0.5596     0.0311    -0.0526     0.0806     0.5422     5.5205   128.9600     0.4132    -0.2959
  405    8.080   2737.42     0.5142     0.0294    -0.0525     0.0808     0.4926     5.6381   129.2800     0.3633    -0.3638
  406    8.100   2738.40     0.4836     0.0281    -0.0551     0.0810     0.4563     5.7991   129.6000     0.3267    -0.4469
  407    8.120   2739.36     0.5192     0.0269    -0.0704     0.0812     0.4940     5.3849   129.9200     0.3641    -0.3876
  408    8.140   2740.41     0.5172     0.0272    -0.0912     0.0814     0.4799     5.1070   130.2400     0.3497    -0.4869
  409    8.160   2741.43     0.4500     0.0288    -0.0888     0.0816     0.4142     6.3257   130.5600     0.2837    -0.5882
  410    8.180   2742.38     0.4377     0.0298    -0.0739     0.0818     0.4032     6.7282   130.8800     0.2723    -0.6020
  411    8.200   2743.38     0.4846     0.0320    -0.0640     0.0820     0.4562     7.1134   131.2000     0.3250    -0.4601
  412    8.220   2744.42     0.5647     0.0319    -0.0608     0.0822     0.5385     6.0946   131.5200     0.4070    -0.3553
  413    8.240   2745.44     0.6557     0.0342    -0.0701     0.0824     0.6262     5.6059   131.8400     0.4944    -0.3090
  414    8.260   2746.49     0.6805     0.0360    -0.0646     0.0826     0.6516     5.3168   132.1600     0.5194    -0.2915
  415    8.280   2747.52     0.7225     0.0375    -0.0952     0.0828     0.6865     5.2142   132.4800     0.5540    -0.3040
  416    8.300   2748.51     0.7925     0.0397    -0.1116     0.0830     0.7493     5.0343   132.8000     0.6165    -0.3014
  417    8.320   2749.50     0.8459     0.0424    -0.0973     0.0832     0.8038     5.0295   133.1200     0.6706    -0.2737
  418    8.340   2750.53     0.9137     0.0463    -0.0929     0.0834     0.8736     5.1039   133.4400     0.7402    -0.2417
  419    8.360   2751.55     1.0006     0.0495    -0.1083     0.0836     0.9560     4.9615   133.7600     0.8222    -0.2310
  420    8.380   2752.55     0.9894     0.0525    -0.1349     0.0838     0.9359     5.2569   134.0800     0.8018    -0.2635
  421    8.400   2753.55     0.9829     0.0573    -0.1467     0.0840     0.9227     5.6991   134.4000     0.7883    -0.2884
  422    8.420   2754.56     1.0042     0.0621    -0.1438     0.0842     0.9450     6.1412   134.7200     0.8103    -0.2780
  423    8.440   2755.56     1.0141     0.0644    -0.1459     0.0844     0.9533     6.3421   135.0400     0.8182    -0.2801
  424    8.460   2756.61     0.9909     0.0606    -0.1380     0.0846     0.9323     6.0227   135.3600     0.7970    -0.2810
  425    8.480   2757.58     0.9432     0.0569    -0.1431     0.0848     0.8837     5.9021   135.6800     0.7480    -0.3031
  426    8.500   2768.33     0.8720     0.0531    -0.1370     0.0850     0.8136     5.7449   136.0000     0.6776    -0.3360
  427    8.520   2783.46     0.7969     0.0502    -0.1310     0.0852     0.7411     5.4334   136.3200     0.6047    -0.3686
  428    8.540   2798.60     0.7219     0.0485    -0.1242     0.0854     0.6685     6.1252   136.6400     0.5319    -0.4012
  429    8.560   2801.78     0.7023     0.0477    -0.1228     0.0856     0.6503     6.8157   136.9600     0.5134    -0.4078
  430    8.580   2802.83     0.7521     0.0472    -0.1261     0.0858     0.6995     6.3367   137.2800     0.5622    -0.3752
  431    8.600   2803.80     0.9367     0.0488    -0.1194     0.0860     0.8842     5.3205   137.6000     0.7466    -0.2836
  432    8.620   2804.78     1.0693     0.0482    -0.1159     0.0862     1.0208     4.5379   137.9200     0.8829    -0.2286
  433    8.640   2805.77     1.1030     0.0488    -0.1149     0.0864     1.0540     4.4244   138.2400     0.9157    -0.2219
  434    8.660   2806.82     1.0817     0.0500    -0.1108     0.0866     1.0357     4.6159   138.5600     0.8971    -0.2188
  435    8.680   2807.84     1.0252     0.0503    -0.1198     0.0868     0.9746     4.8764   138.8800     0.8357    -0.2481
  436    8.700   2808.84     0.9153     0.0483    -0.1186     0.0870     0.8662     5.0535   139.2000     0.7270    -0.2807
  437    8.720   2809.84     0.8716     0.0490    -0.1201     0.0872     0.8217     5.5907   139.5200     0.6822    -0.3019
  438    8.740   2810.83     0.8252     0.0450    -0.1201     0.0874     0.7746     5.3052   139.8400     0.6347    -0.3275
  439    8.760   2811.82     0.7746     0.0421    -0.1175     0.0876     0.7246     5.3627   140.1600     0.5845    -0.3536
  440    8.780   2812.93     0.8410     0.0422    -0.1133     0.0878     0.7922     5.0473   140.4800     0.6518    -0.3130
  441    8.800   2813.91     0.9208     0.0418    -0.1041     0.0880     0.8753     4.5534   140.8000     0.7345    -0.2672
  442    8.820   2814.94     1.0074     0.0418    -0.0955     0.0882     0.9658     4.1662   141.1200     0.8246    -0.2273
  443    8.840   2815.96     1.0552     0.0425    -0.0943     0.0884     1.0139     4.0483   141.4400     0.8725    -0.2140
  444    8.860   2816.91     1.0824     0.0430    -0.0947     0.0886     1.0430     3.9764   141.7600     0.9013    -0.2023
  445    8.880   2817.92     1.0799     0.0425    -0.0873     0.0888     1.0403     3.9352   142.0800     0.8983    -0.2038
  446    8.900   2818.98     1.0718     0.0445    -0.0779     0.0890     1.0382     4.1514   142.4000     0.8958    -0.1887
  447    8.920   2819.97     1.0622     0.0452    -0.0751     0.0892     1.0318     4.2459   142.7200     0.8891    -0.1817
  448    8.940   2820.95     1.0291     0.0449    -0.0726     0.0894     0.9979     4.3271   143.0400     0.8549    -0.1914
  449    8.960   2821.97     0.9836     0.0417    -0.0625     0.0896     0.9572     4.2246   143.3600     0.8138    -0.1873
  450    8.980   2822.95     0.9477     0.0411    -0.0651     0.0898     0.9227     4.3465   143.6800     0.7790    -0.1917
  451    9.000   2823.97     1.0107     0.0435    -0.0625     0.0900     0.9827     4.3470   144.0000     0.8387    -0.1870
  452    9.020   2824.97     1.0779     0.0434    -0.0383     0.0902     1.0577     4.0419   144.3200     0.9134    -0.1515
  453    9.040   2825.91     1.1133     0.0429    -0.0169     0.0904     1.1031     3.8627   144.6400     0.9585    -0.1195
  454    9.060   2826.96     1.1140     0.0440    -0.0051     0.0906     1.1094     3.9413   144.9600     0.9644    -0.1054
  455    9.080   2827.94     1.1093     0.0427     0.0117     0.0908     1.1115     3.8503   145.2800     0.9662    -0.0886
  456    9.100   2828.98     1.0735     0.0416     0.0326     0.0910     1.0850     3.8512   145.6000     0.9394    -0.0676
  457    9.120   2829.97     1.0255     0.0402     0.0427     0.0912     1.0418     3.9159   145.9200     0.8959    -0.0585
  458    9.140   2830.97     1.0067     0.0372     0.0600     0.0914     1.0298     3.6835   146.2400     0.8835    -0.0414
  459    9.160   2831.94     0.9862     0.0352     0.0763     0.0916     1.0155     3.5557   146.5600     0.8690    -0.0250
  460    9.180   2832.92     0.9636     0.0340     0.0938     0.0918     1.0014     3.5016   146.8800     0.8545    -0.0022
  461    9.200   2833.95     0.9503     0.0346     0.1133     0.0920     0.9976     3.6145   147.2000     0.8504     0.0241
  462    9.220   2834.98     0.9409     0.0337     0.1372     0.0922     0.9917     3.5858   147.5200     0.8442     0.0340
  463    9.240   2835.98     0.9268     0.0332     0.1475     0.0924     0.9870     3.5605   147.8400     0.8391     0.0607
  464    9.260   2836.96     0.9860     0.0340     0.1603     0.0926     1.0517     3.6127   148.1600     0.9035     0.0707
  465    9.280   2838.05     1.1046     0.0376     0.1625     0.0928     1.1762     3.3989   148.4800     1.0278     0.0755
  466    9.300   2839.07     1.1140     0.0376     0.1026     0.0930     1.1769     3.3806   148.8000     1.0281     0.0548
  467    9.320   2840.09     1.1673     0.0384     0.0945     0.0932     1.2133     3.2975   149.1200     1.0642     0.0155
  468    9.340   2841.10     1.2451     0.0415     0.1024     0.0934     1.2823     3.3399   149.4400     1.1329    -0.0043
  469    9.360   2842.09     1.2749     0.0458    -0.0097     0.0936     1.2773     3.5942   149.7600     1.1275    -0.0781
  470    9.380   2843.06     1.2470     0.0492     0.0200     0.0938     1.2541     3.9129   150.0800     1.1040    -0.0698
  471    9.400   2844.08     1.1678     0.0490     0.0273     0.0940     1.1793     4.1603   150.4000     1.0289    -0.0648
  472    9.420   2845.15     1.0717     0.0461     0.0277     0.0942     1.0831     4.2418   150.7200     0.9324    -0.0720
  473    9.440   2846.14     0.9980     0.0425     0.0428     0.0944     1.0130     4.2199   151.0400     0.8619    -0.0681
  474    9.460   2847.16     0.9237     0.0385     0.0654     0.0946     0.9471     4.1424   151.3600     0.7957    -0.0487
  475    9.480   2848.12     0.8704     0.0351     0.1176     0.0948     0.9119     4.0130   151.6800     0.7602     0.0052
  476    9.500   2849.14     0.8564     0.0314     0.1573     0.0950     0.9178     3.6651   152.0000     0.7658     0.0668
  477    9.520   2850.11     0.8631     0.0281     0.1894     0.0952     0.9382     3.2607   152.3200     0.7859     0.1062
  478    9.540   2851.11     0.8781     0.0246     0.2135     0.0954     0.9629     2.7998   152.6400     0.8102     0.1313
  479    9.560   2852.15     0.8627     0.0232     0.2370     0.0956     0.9615     2.6689   152.9600     0.8086     0.1728
  480    9.580   2853.17     0.8338     0.0224     0.2304     0.0958     0.9314     2.6804   153.2800     0.7781     0.1755
  481    9.600   2854.19     0.8112     0.0219     0.2386     0.0960     0.9092     2.6930   153.6000     0.7556     0.1818
  482    9.620   2855.18     0.7833     0.0217     0.2427     0.0962     0.8848     2.7337   153.9200     0.7309     0.1992
  483    9.640   2856.16     0.7680     0.0217     0.2689     0.0964     0.8775     2.8220   154.2400     0.7232     0.2271
  484    9.660   2857.13     0.7598     0.0219     0.2818     0.0966     0.8761     2.8745   154.5600     0.7215     0.2498
  485    9.680   2858.14     0.7495     0.0208     0.2979     0.0968     0.8723     2.7821   154.8800     0.7174     0.2725
  486    9.700   2859.23     0.7471     0.0192     0.3136     0.0970     0.8772     2.5740   155.2000     0.7220     0.2948
  487    9.720   2860.18     0.7406     0.0187     0.3249     0.0972     0.8752     2.5156   155.5200     0.7197     0.3103
  488    9.740   2861.24     0.7313     0.0192     0.3336     0.0974     0.8703     2.6140   155.8400     0.7144     0.3268
  489    9.760   2862.21     0.7295     0.0192     0.3408     0.0976     0.8716     2.6380   156.1600     0.7154     0.3364
  490    9.780   2863.22     0.7249     0.0192     0.3499     0.0978     0.8705     2.6384   156.4800     0.7140     0.3486
  491    9.800   2864.28     0.7130     0.0196     0.3565     0.0980     0.8620     2.7371   156.8000     0.7052     0.3639
  492    9.820   2865.29     0.7056     0.0201     0.3600     0.0982     0.8564     2.8645   157.1200     0.6993     0.3730
  493    9.840   2866.31     0.7020     0.0197     0.3666     0.0984     0.8549     2.7998   157.4400     0.6974     0.3808
  494    9.860   2867.30     0.7019     0.0193     0.3717     0.0986     0.8574     2.7458   157.7600     0.6996     0.3882
  495    9.880   2868.29     0.6980     0.0183     0.3795     0.0988     0.8564     2.6235   158.0800     0.6983     0.3985
  496    9.900   2869.37     0.6917     0.0184     0.3858     0.0990     0.8526     2.6595   158.4000     0.6942     0.4093
  497    9.920   2870.35     0.6866     0.0188     0.3930     0.0992     0.8511     2.7412   158.7200     0.6924     0.4225
  498    9.940   2871.37     0.6752     0.0185     0.3934     0.0994     0.8404     2.7432   159.0400     0.6813     0.4314
  499    9.960   2872.36     0.6410     0.0183     0.3710     0.0996     0.8038     2.7516   159.3600     0.6445     0.4472
  500    9.980   2873.36     0.5836     0.0184     0.3376     0.0998     0.7252     3.1057   159.6800     0.5655     0.4196
  501   10.000   2874.38     0.6001     0.0193     0.3451     0.1000     0.7442     3.2239   160.0000     0.5842     0.4164
  502   10.020   2875.43     0.5759     0.0193     0.3433     0.1002     0.7205     3.3358   160.3200     0.5601     0.4358
  503   10.040   2876.41     0.5767     0.0196     0.3441     0.1004     0.7208     3.4453   160.6400     0.5602     0.4334
  504   10.060   2877.44     0.5713     0.0197     0.3451     0.1006     0.7169     3.4503   160.9600     0.5559     0.4424
  505   10.080   2878.46     0.5879     0.0199     0.3577     0.1008     0.7368     3.3957   161.2800     0.5756     0.4411
  506   10.100   2879.42     0.6199     0.0194     0.3747     0.1010     0.7735     3.1937   161.6000     0.6119     0.4327
  507   10.120   2880.47     0.6380     0.0196     0.4042     0.1012     0.8040     3.0807   161.9200     0.6421     0.4579
  508   10.140   2881.48     0.6336     0.0191     0.4189     0.1014     0.8072     3.0090   162.2400     0.6450     0.4837
  509   10.160   2882.48     0.6373     0.0187     0.4319     0.1016     0.8169     2.9375   162.5600     0.6544     0.4984
  510   10.180   2883.49     0.6310     0.0181     0.4367     0.1018     0.8136     2.8485   162.8800     0.6507     0.5119
  511   10.200   2884.50     0.6284     0.0177     0.4433     0.1020     0.8137     2.8174   163.2000     0.6505     0.5216
  512   10.220   2885.49     0.6235     0.0181     0.4454     0.1022     0.8100     2.8971   163.5200     0.6465     0.5288
  513   10.240   2886.50     0.6222     0.0179     0.4488     0.1024     0.8103     2.8824   163.8400     0.6465     0.5344
  514   10.260   2887.51     0.6178     0.0178     0.4531     0.1026     0.8071     2.8825   164.1600     0.6430     0.5415
  515   10.280   2888.56     0.6166     0.0180     0.4598     0.1028     0.8087     2.9076   164.4800     0.6442     0.5503
  516   10.300   2889.60     0.6206     0.0179     0.4644     0.1030     0.8144     2.8829   164.8000     0.6496     0.5517
  517   10.320   2890.60     0.6196     0.0176     0.4660     0.1032     0.8156     2.8411   165.1200     0.6505     0.5588
  518   10.340   2891.60     0.6135     0.0178     0.4657     0.1034     0.8092     2.8853   165.4400     0.6438     0.5632
  519   10.360   2892.58     0.6070     0.0180     0.4662     0.1036     0.8026     2.9483   165.7600     0.6368     0.5688
  520   10.380   2893.61     0.6084     0.0186     0.4696     0.1038     0.8051     3.0456   166.0800     0.6390     0.5704
  521   10.400   2894.64     0.6060     0.0206     0.4724     0.1040     0.8038     3.3681   166.4000     0.6374     0.5755
  522   10.420   2895.65     0.6104     0.0226     0.4671     0.1042     0.8076     3.6907   166.7200     0.6408     0.5701
  523   10.440   2896.67     0.6157     0.0232     0.4718     0.1044     0.8130     3.7682   167.0400     0.6460     0.5657
  524   10.460   2897.69     0.6260     0.0229     0.4763     0.1046     0.8254     3.6628   167.3600     0.6580     0.5626
  525   10.480   2898.68     0.6284     0.0233     0.4775     0.1048     0.8290     3.7010   167.6800     0.6613     0.5638
  526   10.500   2914.33     0.6194     0.0233     0.4640     0.1050     0.8163     3.7038   168.0000     0.6483     0.5608
  527   10.520   2934.78     0.6078     0.0236     0.4504     0.1052     0.7989     3.7492   168.3200     0.6306     0.5547
  528   10.540   2949.20     0.5988     0.0233     0.4567     0.1054     0.7886     3.8821   168.6400     0.6200     0.5591
  529   10.560   2950.18     0.5881     0.0233     0.4496     0.1056     0.7793     3.9574   168.9600     0.6103     0.5726
  530   10.580   2951.20     0.6001     0.0228     0.4629     0.1058     0.7905     3.8015   169.2800     0.6212     0.5592
  531   10.600   2952.20     0.6083     0.0226     0.4782     0.1060     0.8078     3.7228   169.6000     0.6382     0.5783
  532   10.620   2953.21     0.6087     0.0224     0.4839     0.1062     0.8117     3.6859   169.9200     0.6418     0.5877
  533   10.640   2954.22     0.6192     0.0222     0.4838     0.1064     0.8217     3.5973   170.2400     0.6514     0.5765
  534   10.660   2955.21     0.6284     0.0224     0.4970     0.1066     0.8351     3.5685   170.5600     0.6646     0.5803
  535   10.680   2956.22     0.6354     0.0227     0.5004     0.1068     0.8451     3.5796   170.8800     0.6743     0.5821
  536   10.700   2957.23     0.6375     0.0226     0.5124     0.1070     0.8509     3.5431   171.2000     0.6797     0.5899
  537   10.720   2958.24     0.6526     0.0228     0.5171     0.1072     0.8688     3.5064   171.5200     0.6973     0.5848
  538   10.740   2959.24     0.6637     0.0231     0.5218     0.1074     0.8824     3.4781   171.8400     0.7106     0.5818
  539   10.760   2960.28     0.6834     0.0228     0.5308     0.1076     0.9050     3.3392   172.1600     0.7329     0.5733
  540   10.780   2961.29     0.7022     0.0232     0.5366     0.1078     0.9264     3.3117   172.4800     0.7539     0.5649
  541   10.800   2962.31     0.7056     0.0238     0.5377     0.1080     0.9315     3.3708   172.8000     0.7587     0.5664
  542   10.820   2963.30     0.7099     0.0236     0.5417     0.1082     0.9365     3.3218   173.1200     0.7634     0.5650
  543   10.840   2964.30     0.7122     0.0243     0.5471     0.1084     0.9412     3.4064   173.4400     0.7678     0.5691
  544   10.860   2965.28     0.7186     0.0245     0.5442     0.1086     0.9471     3.4160   173.7600     0.7733     0.5629
  545   10.880   2966.31     0.7294     0.0245     0.5506     0.1088     0.9597     3.3685   174.0800     0.7856     0.5594
  546   10.900   2967.33     0.7301     0.0250     0.5507     0.1090     0.9612     3.4183   174.4000     0.7868     0.5609
  547   10.920   2968.36     0.7348     0.0250     0.5463     0.1092     0.9653     3.4066   174.7200     0.7906     0.5559
  548   10.940   2969.33     0.7327     0.0247     0.5483     0.1094     0.9620     3.3669   175.0400     0.7870     0.5547
  549   10.960   2970.36     0.7421     0.0247     0.5559     0.1096     0.9745     3.3448   175.3600     0.7992     0.5554
  550   10.980   2971.32     0.7586     0.0245     0.5631     0.1098     0.9947     3.2365   175.6800     0.8190     0.5522
  551   11.000   2972.33     0.7547     0.0245     0.5665     0.1100     0.9932     3.2370   176.0000     0.8172     0.5602
  552   11.020   2973.37     0.7548     0.0244     0.5636     0.1102     0.9919     3.2408   176.3200     0.8156     0.5570
  553   11.040   2974.37     0.7612     0.0249     0.5668     0.1104     0.9980     3.2754   176.6400     0.8214     0.5521
  554   11.060   2975.34     0.7512     0.0247     0.5689     0.1106     0.9892     3.2791   176.9600     0.8123     0.5615
  555   11.080   2976.33     0.7575     0.0247     0.5657     0.1108     0.9953     3.2697   177.2800     0.8181     0.5569
  556   11.100   2977.35     0.7530     0.0247     0.5677     0.1110     0.9913     3.2781   177.6000     0.8137     0.5609
  557   11.120   2978.38     0.7555     0.0242     0.5650     0.1112     0.9932     3.2102   177.9200     0.8152     0.5576
  558   11.140   2979.38     0.7460     0.0246     0.5722     0.1114     0.9854     3.2936   178.2400     0.8072     0.5680
  559   11.160   2980.36     0.7458     0.0243     0.5690     0.1116     0.9851     3.2648   178.5600     0.8066     0.5681
  560   11.180   2981.36     0.7476     0.0241     0.5700     0.1118     0.9866     3.2193   178.8800     0.8077     0.5660
  561   11.200   2982.34     0.7462     0.0240     0.5662     0.1120     0.9841     3.2005   179.2000     0.8049     0.5645
  562   11.220   2983.39     0.7486     0.0239     0.5639     0.1122     0.9850     3.2135   179.5200     0.8055     0.5597
  563   11.240   2984.41     0.7482     0.0238     0.5628     0.1124     0.9849     3.1749   179.8400     0.8051     0.5605
  564   11.260   2985.45     0.7402     0.0241     0.5643     0.1126     0.9767     3.2531   180.1600     0.7966     0.5657
  565   11.280   2986.45     0.7395     0.0238     0.5706     0.1128     0.9781     3.2121   180.4800     0.7976     0.5708
  566   11.300   2987.46     0.7315     0.0235     0.5684     0.1130     0.9711     3.1923   180.8000     0.7903     0.5789
  567   11.320   2988.48     0.7164     0.0233     0.5705     0.1132     0.9551     3.2252   181.1200     0.7740     0.5881
  568   11.340   2989.52     0.7106     0.0235     0.5746     0.1134     0.9513     3.3228   181.4400     0.7699     0.5972
  569   11.360   2990.51     0.7186     0.0241     0.5831     0.1136     0.9619     3.3522   181.7600     0.7801     0.5971
  570   11.380   2991.53     0.7141     0.0244     0.5843     0.1138     0.9597     3.4182   182.0800     0.7777     0.6057
  571   11.400   2992.52     0.7229     0.0246     0.5859     0.1140     0.9680     3.4055   182.4000     0.7856     0.5977
  572   11.420   2993.58     0.7286     0.0248     0.5925     0.1142     0.9768     3.4034   182.7200     0.7941     0.6002
  573   11.440   2994.58     0.7314     0.0248     0.6049     0.1144     0.9831     3.3905   183.0400     0.8001     0.6060
  574   11.460   2995.57     0.7382     0.0251     0.6084     0.1146     0.9930     3.4017   183.3600     0.8097     0.6078
  575   11.480   2996.53     0.7444     0.0244     0.6233     0.1148     1.0038     3.2957   183.6800     0.8201     0.6131
  576   11.500   2997.54     0.7384     0.0243     0.6303     0.1150     1.0024     3.2892   184.0000     0.8184     0.6274
  577   11.520   2998.58     0.7409     0.0239     0.6352     0.1152     1.0072     3.2321   184.3200     0.8229     0.6306
  578   11.540   2999.58     0.7418     0.0240     0.6482     0.1154     1.0115     3.2383   184.6400     0.8268     0.6369
  579   11.560   3000.60     0.7483     0.0245     0.6581     0.1156     1.0232     3.2763   184.9600     0.8382     0.6427
  580   11.580   3001.60     0.7535     0.0250     0.6645     0.1158     1.0318     3.3265   185.2800     0.8465     0.6460
  581   11.600   3002.63     0.7653     0.0254     0.6802     0.1160     1.0484     3.3389   185.6000     0.8628     0.6469
  582   11.620   3003.62     0.8072     0.0256     0.6835     0.1162     1.0946     3.2741   185.9200     0.9087     0.6253
  583   11.640   3004.61     0.8387     0.0347     0.6794     0.1164     1.1246     4.2114   186.2400     0.9384     0.6016
  584   11.660   3005.61     0.9326     0.0477     0.6872     0.1166     1.2192     5.4652   186.5600     1.0327     0.5491
  585   11.680   3006.67     1.0799     0.0568     0.7131     0.1168     1.3736     5.6604   186.8800     1.1867     0.4919
  586   11.700   3007.69     2.0045     0.0641     0.7365     0.1170     2.3191     4.5804   187.2000     2.1319     0.3027
  587   11.720   3008.74     3.1512     0.0674     0.6502     0.1172     3.4243     2.3316   187.5200     3.2367     0.1657
  588   11.740   3009.73     2.8557     0.0696     0.7246     0.1174     3.1452     2.2473   187.8400     2.9573     0.1937
  589   11.760   3010.75     2.4547     0.0744     0.8462     0.1176     2.7972     2.8754   188.1600     2.6090     0.2677
  590   11.780   3011.80     2.1816     0.0783     0.8798     0.1178     2.5495     3.4089   188.4800     2.3610     0.3212
  591   11.800   3012.78     2.0339     0.0698     0.8912     0.1180     2.4049     3.3411   188.8000     2.2161     0.3454
  592   11.820   3013.81     1.8763     0.0603     0.8996     0.1182     2.2526     3.1198   189.1200     2.0635     0.3769
  593   11.840   3014.86     1.8096     0.0543     0.9140     0.1184     2.1927     2.9875   189.4400     2.0032     0.3962
  594   11.860   3015.89     1.7575     0.0513     0.9083     0.1186     2.1412     2.8659   189.7600     1.9514     0.4074
  595   11.880   3016.91     1.6361     0.0487     0.8417     0.1188     2.0066     2.8769   190.0800     1.8165     0.4202
  596   11.900   3017.93     1.5476     0.0461     0.8193     0.1190     1.8911     2.9652   190.4000     1.7007     0.4110
  597   11.920   3018.92     1.4593     0.0443     0.8363     0.1192     1.8077     2.9486   190.7200     1.6170     0.4393
  598   11.940   3019.94     1.3755     0.0448     0.8607     0.1194     1.7318     3.1883   191.0400     1.5407     0.4731
  599   11.960   3020.95     1.3143     0.0402     0.8757     0.1196     1.6803     2.9902   191.3600     1.4889     0.5050
  600   11.980   3022.03     1.2765     0.0355     0.8725     0.1198     1.6450     2.7808   191.6800     1.4533     0.5213
  601   12.000   3023.00     1.2821     0.0339     0.8711     0.1200     1.6451     2.6351   192.0000     1.4531     0.5122
  602   12.020   3024.03     1.2591     0.0368     0.8947     0.1202     1.6338     2.9009   192.3200     1.4415     0.5356
  603   12.040   3025.01     1.3085     0.0380     0.9039     0.1204     1.6869     2.9540   192.6400     1.4943     0.5225
  604   12.060   3026.02     1.4549     0.0372     0.8612     0.1206     1.8277     2.6924   192.9600     1.6347     0.4692
  605   12.080   3027.05     1.5269     0.0377     0.7938     0.1208     1.8723     2.4912   193.2800     1.6790     0.4179
  606   12.100   3028.08     1.5553     0.0394     0.6930     0.1210     1.8589     2.5361   193.6000     1.6653     0.3614
  607   12.120   3029.11     1.5181     0.0391     0.6874     0.1212     1.8084     2.5665   193.9200     1.6145     0.3532
  608   12.140   3030.13     1.3837     0.0389     0.7322     0.1214     1.6815     2.7755   194.2400     1.4872     0.3952
  609   12.160   3031.10     1.3177     0.0362     0.7704     0.1216     1.6375     2.6945   194.5600     1.4430     0.4435
  610   12.180   3032.12     1.2931     0.0336     0.8028     0.1218     1.6260     2.5805   194.8800     1.4311     0.4687
  611   12.200   3033.13     1.2983     0.0330     0.8164     0.1220     1.6393     2.5578   195.2000     1.4441     0.4777
  612   12.220   3034.16     1.3727     0.0329     0.8261     0.1222     1.7190     2.4703   195.5200     1.5235     0.4612
  613   12.240   3035.19     1.4771     0.0331     0.8231     0.1224     1.8245     2.3145   195.8400     1.6286     0.4328
  614   12.260   3036.23     1.6822     0.0428     0.8022     0.1226     2.0226     2.6889   196.1600     1.8264     0.3771
  615   12.280   3037.27     2.0091     0.0485     0.7847     0.1228     2.3409     2.5764   196.4800     2.1444     0.3116
  616   12.300   3038.32     2.7007     0.0609     0.7697     0.1230     3.0262     2.4626   196.8000     2.8294     0.2309
  617   12.320   3039.36     3.4870     0.0674     0.6899     0.1232     3.7928     2.0680   197.1200     3.5957     0.1685
  618   12.340   3040.37     4.6076     0.0754     0.5684     0.1234     4.8709     1.8064   197.4400     4.6735     0.1081
  619   12.360   3041.47     6.1539     0.0834     0.3468     0.1236     6.3336     1.5447   197.7600     6.1358     0.0501
  620   12.380   3042.55     8.7005     0.0836     0.1365     0.1238     8.7993     1.1123   198.0800     8.6012     0.0135
  621   12.400   3043.61    10.9838     0.0722    -0.1887     0.1240    10.9440     0.7223   198.4000    10.7456    -0.0200
  622   12.420   3052.06    12.2557     0.0767    -0.1400     0.1242    12.1876     0.6488   198.7200    11.9889    -0.0242
  623   12.440   3076.32    12.8799     0.0791    -0.0757     0.1244    12.8388     0.6556   199.0400    12.6398    -0.0183
  624   12.460   3100.58    13.5041     0.0794    -0.0113     0.1246    13.4901     0.6584   199.3600    13.2907    -0.0124
  625   12.480   3119.64    14.1955     0.0906     0.0077     0.1248    14.2016     0.6526   199.6800    14.0019    -0.0079
  626   12.500   3120.73    14.6814     0.1096    -0.0079     0.1250    14.6780     0.7506   200.0000    14.4780    -0.0092
  627   12.520   3121.80    15.0944     0.1162    -0.0155     0.1252    15.0893     0.7738   200.3200    14.8890    -0.0092
  628   12.540   3122.79    15.3203     0.1202    -0.0132     0.1254    15.3118     0.7863   200.6400    15.1112    -0.0096
  629   12.560   3123.91    15.5119     0.1191     0.0029     0.1256    15.5128     0.7694   200.9600    15.3119    -0.0081
  630   12.580   3124.95    15.6945     0.1185     0.0285     0.1258    15.7045     0.7566   201.2800    15.5032    -0.0066
  631   12.600   3126.01    15.8329     0.1186     0.0316     0.1260    15.8437     0.7503   201.6000    15.6421    -0.0064
  632   12.620   3127.16    15.9653     0.1217     0.0131     0.1262    15.9693     0.7631   201.9200    15.7674    -0.0074
  633   12.640   3128.26    16.0702     0.1212     0.0125     0.1264    16.0762     0.7549   202.2400    15.8739    -0.0071
  634   12.660   3129.34    16.1610     0.1233     0.0069     0.1266    16.1643     0.7631   202.5600    15.9617    -0.0074
  635   12.680   3130.35    16.2528     0.1263     0.0116     0.1268    16.2572     0.7775   202.8800    16.0544    -0.0072
  636   12.700   3131.47    16.2838     0.1307    -0.0036     0.1270    16.2846     0.8022   203.2000    16.0814    -0.0078
  637   12.720   3132.53    16.2605     0.1341    -0.0026     0.1272    16.2587     0.8247   203.5200    16.0551    -0.0082
  638   12.740   3133.70    16.2837     0.1377     0.0040     0.1274    16.2851     0.8454   203.8400    16.0813    -0.0077
  639   12.760   3134.80    16.2613     0.1397     0.0222     0.1276    16.2655     0.8591   204.1600    16.0613    -0.0073
  640   12.780   3135.89    16.3185     0.1422     0.0495     0.1278    16.3374     0.8714   204.4800    16.1329    -0.0051
  641   12.800   3136.97    16.3640     0.1441     0.0334     0.1280    16.3800     0.8810   204.8000    16.1752    -0.0056
  642   12.820   3138.06    16.3273     0.1461     0.0303     0.1282    16.3349     0.8942   205.1200    16.1298    -0.0068
  643   12.840   3139.19    16.2881     0.1479     0.0533     0.1284    16.3077     0.9082   205.4400    16.1022    -0.0051
  644   12.860   3140.28    16.3761     0.1484     0.0639     0.1286    16.4010     0.9065   205.7600    16.1953    -0.0043
  645   12.880   3141.32    16.4577     0.1496     0.0681     0.1288    16.4873     0.9097   206.0800    16.2812    -0.0036
  646   12.900   3142.46    16.5839     0.1528     0.0769     0.1290    16.6152     0.9228   206.4000    16.4088    -0.0033
  647   12.920   3143.59    16.8247     0.1554     0.0797     0.1292    16.8590     0.9242   206.7200    16.6523    -0.0029
  648   12.940   3144.70    17.0524     0.1592     0.0859     0.1294    17.0882     0.9340   207.0400    16.8812    -0.0026
  649   12.960   3145.78    17.2096     0.1638     0.0807     0.1296    17.2428     0.9528   207.3600    17.0355    -0.0030
  650   12.980   3146.85    17.2616     0.1665     0.0783     0.1298    17.2930     0.9643   207.6800    17.0853    -0.0032
  651   13.000   3147.94    17.3279     0.1691     0.0947     0.1300    17.3694     0.9759   208.0000    17.1614    -0.0018
  652   13.020   3149.10    17.3806     0.1714     0.1004     0.1302    17.4197     0.9866   208.3200    17.2113    -0.0022
  653   13.040   3150.19    17.4716     0.1720     0.1013     0.1304    17.5137     0.9862   208.6400    17.3050    -0.0017
  654   13.060   3151.26    17.5910     0.1730     0.0923     0.1306    17.6307     0.9836   208.9600    17.4218    -0.0021
  655   13.080   3152.34    17.7848     0.1756     0.1007     0.1308    17.8266     0.9927   209.2800    17.6173    -0.0018
  656   13.100   3153.45    17.9887     0.1786     0.1011     0.1310    18.0301     0.9934   209.6000    17.8205    -0.0018
  657   13.120   3154.56    18.0943     0.1825     0.0784     0.1312    18.1284     1.0085   209.9200    17.9185    -0.0028
  658   13.140   3155.70    17.9355     0.1831     0.0708     0.1314    17.9683     1.0200   210.2400    17.7581    -0.0030
  659   13.160   3156.79    17.6761     0.1819     0.0515     0.1316    17.6995     1.0246   210.5600    17.4889    -0.0043
  660   13.180   3157.88    17.2888     0.1771     0.0740     0.1318    17.3179     1.0235   210.8800    17.1070    -0.0036
  661   13.200   3158.97    16.9614     0.1698     0.0950     0.1320    16.9993     0.9920   211.2000    16.7881    -0.0025
  662   13.220   3160.04    16.6655     0.1629     0.1028     0.1322    16.7093     0.9729   211.5200    16.4978    -0.0017
  663   13.240   3161.18    16.3829     0.1560     0.0739     0.1324    16.4162     0.9489   211.8400    16.2044    -0.0033
  664   13.260   3162.31    16.0462     0.1506     0.0612     0.1326    16.0710     0.9338   212.1600    15.8588    -0.0046
  665   13.280   3163.42    15.8504     0.1480     0.0571     0.1328    15.8748     0.9308   212.4800    15.6623    -0.0048
  666   13.300   3164.51    15.9897     0.1476     0.0451     0.1330    16.0127     0.9260   212.8000    15.7999    -0.0050
  667   13.320   3165.64    16.2872     0.1494     0.0645     0.1332    16.3104     0.9222   213.1200    16.0973    -0.0048
  668   13.340   3166.74    16.7932     0.1518     0.0666     0.1334    16.8222     0.9176   213.4400    16.6087    -0.0039
  669   13.360   3167.87    17.6873     0.1543     0.0661     0.1336    17.7234     0.8915   213.7600    17.5096    -0.0027
  670   13.380   3169.02    18.6063     0.1581     0.0356     0.1338    18.6310     0.8658   214.0800    18.4169    -0.0041
  671   13.400   3170.14    19.0545     0.1655     0.0197     0.1340    19.0692     0.8749   214.4000    18.8548    -0.0053
  672   13.420   3171.27    19.2477     0.1698    -0.0100     0.1342    19.2449     0.8826   214.7200    19.0302    -0.0074
  673   13.440   3172.39    19.3065     0.1643     0.0125     0.1344    19.3108     0.8531   215.0400    19.0958    -0.0065
  674   13.460   3173.47    19.4189     0.1603    -0.0033     0.1346    19.4189     0.8271   215.3600    19.2036    -0.0070
  675   13.480   3174.56    19.6792     0.1589     0.0201     0.1348    19.6954     0.8107   215.6800    19.4797    -0.0049
  676   13.500   3175.72    20.2955     0.1571    -0.0252     0.1350    20.2923     0.7796   216.0000    20.0763    -0.0071
  677   13.520   3176.89    21.0535     0.1510    -0.0595     0.1352    21.0258     0.7273   216.3200    20.8095    -0.0097
  678   13.540   3178.03    21.6806     0.1453    -0.0667     0.1354    21.6515     0.6707   216.6400    21.4348    -0.0096
  679   13.560   3179.12    21.9910     0.1427    -0.0701     0.1356    21.9590     0.6494   216.9600    21.7421    -0.0097
  680   13.580   3180.18    22.1133     0.1426    -0.0723     0.1358    22.0847     0.6450   217.2800    21.8674    -0.0093
  681   13.600   3181.15    21.8881     0.1376    -0.1140     0.1360    21.8463     0.6237   217.6000    21.6287    -0.0109
  682   13.620   3182.13    21.0165     0.1340    -0.1185     0.1362    20.9693     0.6286   217.9200    20.7514    -0.0120
  683   13.640   3183.10    19.6780     0.1311    -0.1279     0.1364    19.6265     0.6571   218.2400    19.4082    -0.0134
  684   13.660   3184.13    18.2751     0.1252    -0.1114     0.1366    18.2261     0.6803   218.5600    18.0076    -0.0141
  685   13.680   3185.16    17.2201     0.1172    -0.0999     0.1368    17.1741     0.6716   218.8800    16.9553    -0.0145
  686   13.700   3186.27    16.3320     0.1150    -0.0773     0.1370    16.2935     0.6976   219.2000    16.0743    -0.0142
  687   13.720   3187.42    15.7011     0.1149    -0.0351     0.1372    15.6780     0.7201   219.5200    15.4584    -0.0124
  688   13.740   3188.50    15.4523     0.1087    -0.0042     0.1374    15.4418     0.7002   219.8400    15.2220    -0.0107
  689   13.760   3189.64    15.3964     0.1046    -0.0122     0.1376    15.3943     0.6793   220.1600    15.1741    -0.0094
  690   13.780   3190.70    15.1619     0.1048    -0.0100     0.1378    15.1616     0.6852   220.4800    14.9411    -0.0093
  691   13.800   3191.79    14.8581     0.1072    -0.0350     0.1380    14.8484     0.7191   220.8000    14.6276    -0.0110
  692   13.820   3192.96    14.5875     0.1097    -0.0534     0.1382    14.5609     0.7506   221.1200    14.3398    -0.0141
  693   13.840   3194.05    14.3225     0.1120    -0.0283     0.1384    14.3040     0.7810   221.4400    14.0826    -0.0130
  694   13.860   3195.14    14.1144     0.1179    -0.0202     0.1386    14.1057     0.8346   221.7600    13.8839    -0.0115
  695   13.880   3196.25    14.0814     0.1231    -0.0008     0.1388    14.0775     0.8739   222.0800    13.8554    -0.0107
  696   13.900   3197.35    14.1164     0.1292     0.0189     0.1390    14.1200     0.9153   222.4000    13.8976    -0.0094
  697   13.920   3198.41    14.0433     0.1303     0.0153     0.1392    14.0503     0.9270   222.7200    13.8276    -0.0089
  698   13.940   3199.51    14.0489     0.1311     0.0255     0.1394    14.0575     0.9338   223.0400    13.8345    -0.0086
  699   13.960   3200.62    14.1142     0.1300     0.0480     0.1396    14.1298     0.9218   223.3600    13.9065    -0.0074
  700   13.980   3201.75    14.1009     0.1307     0.0456     0.1398    14.1197     0.9264   223.6800    13.8961    -0.0068
  701   14.000   3202.84    13.9902     0.1304     0.0519     0.1400    14.0119     0.9317   224.0000    13.7879    -0.0064
  702   14.020   3203.93    13.9765     0.1289     0.0461     0.1402    13.9979     0.9222   224.3200    13.7736    -0.0065
  703   14.040   3204.96    13.9803     0.1246     0.0513     0.1404    14.0011     0.8915   224.6400    13.7765    -0.0066
  704   14.060   3206.05    13.9402     0.1220     0.0549     0.1406    13.9610     0.8749   224.9600    13.7360    -0.0066
  705   14.080   3207.19    13.8972     0.1244     0.0646     0.1408    13.9231     0.8949   225.2800    13.6978    -0.0058
  706   14.100   3208.30    13.8551     0.1242     0.0691     0.1410    13.8835     0.8955   225.6000    13.6579    -0.0054
  707   14.120   3209.36    13.5825     0.1201     0.0733     0.1412    13.6138     0.8814   225.9200    13.3879    -0.0050
  708   14.140   3210.43    13.1879     0.1132     0.0749     0.1414    13.2176     0.8541   226.2400    12.9913    -0.0054
  709   14.160   3211.52    12.6380     0.1068     0.0696     0.1416    12.6690     0.8434   226.5600    12.4424    -0.0055
  710   14.180   3212.58    12.1464     0.1050     0.0747     0.1418    12.1773     0.8526   226.8800    11.9504    -0.0057
  711   14.200   3213.67    11.7765     0.1041     0.0814     0.1420    11.8097     0.8736   227.2000    11.5825    -0.0054
  712   14.220   3214.76    11.6760     0.0873     0.0854     0.1422    11.7127     0.7475   227.5200    11.4852    -0.0048
  713   14.240   3215.90    11.9608     0.0761     0.0922     0.1424    11.9969     0.6380   227.8400    11.7691    -0.0048
  714   14.260   3217.04    12.5330     0.0684     0.1040     0.1426    12.5766     0.5476   228.1600    12.3485    -0.0031
  715   14.280   3218.12    13.1627     0.0612     0.0899     0.1428    13.2084     0.4666   228.4800    12.9800    -0.0026
  716   14.300   3219.25    13.7630     0.0676    -0.0661     0.1430    13.7557     0.4919   228.8000    13.5269    -0.0119
  717   14.320   3220.35    14.0061     0.0807    -0.0653     0.1432    13.9727     0.5765   229.1200    13.7435    -0.0162
  718   14.340   3221.45    13.9454     0.0929    -0.0159     0.1434    13.9339     0.6658   229.4400    13.7044    -0.0125
  719   14.360   3222.54    13.7404     0.1070    -0.0550     0.1436    13.7253     0.7806   229.7600    13.4955    -0.0133
  720   14.380   3223.64    13.3364     0.1210    -0.1069     0.1438    13.2991     0.9072   230.0800    13.0690    -0.0178
  721   14.400   3224.75    12.9966     0.1312    -0.1218     0.1440    12.9443     1.0076   230.4000    12.7139    -0.0211
  722   14.420   3225.82    13.1323     0.1356    -0.0887     0.1442    13.0889     1.0378   230.7200    12.8582    -0.0193
  723   14.440   3226.95    13.5746     0.1362    -0.0337     0.1444    13.5524     1.0128   231.0400    13.3213    -0.0148
  724   14.460   3230.79    13.8952     0.1390     0.0210     0.1446    13.8953     1.0051   231.3600    13.6640    -0.0106
  725   14.480   3251.33    13.9089     0.1398     0.0810     0.1448    13.9342     1.0065   231.6800    13.7026    -0.0062
  726   14.500   3269.05    13.9456     0.1426     0.1098     0.1450    13.9923     1.0245   232.0000    13.7603    -0.0025
  727   14.520   3270.16    14.0300     0.1470     0.1148     0.1452    14.0762     1.0497   232.3200    13.8439    -0.0025
  728   14.540   3271.21    14.0845     0.1519     0.1230     0.1454    14.1358     1.0793   232.6400    13.9031    -0.0017
  729   14.560   3272.30    14.0413     0.1513     0.1262     0.1456    14.0938     1.0764   232.9600    13.8608    -0.0015
  730   14.580   3273.36    13.7265     0.1508     0.1264     0.1458    13.7798     1.0975   233.2800    13.5465    -0.0014
  731   14.600   3274.41    13.1546     0.1469     0.1244     0.1460    13.2078     1.1157   233.6000    12.9742    -0.0015
  732   14.620   3275.52    12.4172     0.1436     0.1228     0.1462    12.4693     1.1443   233.9200    12.2353    -0.0018
  733   14.640   3276.59    11.8010     0.1388     0.1200     0.1464    11.8513     1.1662   234.2400    11.6170    -0.0023
  734   14.660   3277.66    11.7101     0.1291     0.1361     0.1466    11.7641     1.1060   234.5600    11.5295    -0.0016
  735   14.680   3279.76    12.7460     0.1461     0.1275     0.1468    12.8019     1.1590   234.8800    12.5670    -0.0011
  736   14.700   3282.56    12.7943     0.1283     0.1108     0.1470    12.8432     1.0070   235.2000    12.6080    -0.0024
  737   14.720   3285.35    12.8425     0.1278     0.0932     0.1472    12.8845     1.0015   235.5200    12.6490    -0.0037
  738   14.740   3286.46    12.1313     0.1320     0.0705     0.1474    12.1588     1.0635   235.8400    11.9230    -0.0069
  739   14.760   3287.54    11.2557     0.1270     0.0988     0.1476    11.2934     1.0934   236.1600    11.0572    -0.0052
  740   14.780   3288.64    10.2573     0.1167     0.0904     0.1478    10.2968     1.0907   236.4800    10.0603    -0.0054
  741   14.800   3292.02     8.3114     0.1138     0.1047     0.1480     8.3596     1.3939   236.8000     8.1228    -0.0041
  742   14.820   3293.08     8.6192     0.1101     0.1174     0.1482     8.6678     1.2546   237.1200     8.4307    -0.0039
  743   14.840   3294.16     8.3666     0.1074     0.1331     0.1484     8.4202     1.2727   237.4400     8.1828    -0.0025
  744   14.860   3295.22     8.1170     0.1135     0.1403     0.1486     8.1755     1.3745   237.7600     7.9377    -0.0012
  745   14.880   3296.25     7.4433     0.1247     0.1217     0.1488     7.4973     1.6208   238.0800     7.2592    -0.0028
  746   14.900   3297.31     6.5354     0.1304     0.1144     0.1490     6.5848     1.9262   238.4000     6.3464    -0.0049
  747   14.920   3298.34     5.8522     0.1162     0.1236     0.1492     5.9011     1.9408   238.7200     5.6624    -0.0058
  748   14.940   3299.38     5.4069     0.0985     0.1488     0.1494     5.4659     1.7983   239.0400     5.2269    -0.0017
  749   14.960   3300.40     4.9226     0.0925     0.1695     0.1496     4.9932     1.8630   239.3600     4.7538     0.0039
  750   14.980   3301.51     6.6815     0.1005     0.1846     0.1498     6.7543     1.5827   239.6800     6.5146     0.0036
  751   15.000   3302.58     9.9538     0.1144     0.1467     0.1500    10.0171     1.1777   240.0000     9.7771     0.0001
  752   15.020   3303.70    13.0556     0.1314     0.0778     0.1502    13.0951     1.0206   240.3200    12.8548    -0.0043
  753   15.040   3304.77    15.1274     0.1461     0.0982     0.1504    15.1649     0.9717   240.6400    14.9243    -0.0041
  754   15.060   3305.88    16.0839     0.1534     0.1059     0.1506    16.1264     0.9596   240.9600    15.8855    -0.0031
  755   15.080   3306.97    16.5950     0.1621     0.0911     0.1508    16.6349     0.9786   241.2800    16.3936    -0.0034
  756   15.100   3308.07    16.8111     0.1687     0.0990     0.1510    16.8522     1.0055   241.6000    16.6106    -0.0032
  757   15.120   3309.21    16.8193     0.1759     0.0991     0.1512    16.8616     1.0441   241.9200    16.6197    -0.0030
  758   15.140   3310.28    16.5223     0.1771     0.1098     0.1514    16.5666     1.0656   242.2400    16.3243    -0.0028
  759   15.160   3311.34    15.8398     0.1838     0.1169     0.1516    15.8899     1.1480   242.5600    15.6474    -0.0021
  760   15.180   3312.43    14.9657     0.1899     0.1228     0.1518    15.0167     1.2496   242.8800    14.7739    -0.0020
  761   15.200   3313.52    13.7953     0.1944     0.1203     0.1520    13.8452     1.3726   243.2000    13.6020    -0.0024
  762   15.220   3314.56    12.1915     0.1969     0.1226     0.1522    12.2423     1.5527   243.5200    11.9987    -0.0026
  763   15.240   3315.61    10.4738     0.1960     0.1185     0.1524    10.5247     1.7817   243.8400    10.2809    -0.0031
  764   15.260   3316.71     8.5574     0.1819     0.1186     0.1526     8.6069     2.0048   244.1600     8.3628    -0.0042
  765   15.280   3317.74     6.8024     0.1613     0.1230     0.1528     6.8539     2.2200   244.4800     6.6094    -0.0046
  766   15.300   3318.80     5.9897     0.1367     0.1490     0.1530     6.0458     2.2222   244.8000     5.8010    -0.0033
  767   15.320   3319.83     6.2340     0.1117     0.1786     0.1532     6.3108     1.8530   245.1200     6.0657     0.0049
  768   15.340   3320.89     6.4615     0.0992     0.1482     0.1534     6.5306     1.5382   245.4400     6.2852     0.0018
  769   15.360   3321.95     7.1917     0.0999     0.1017     0.1536     7.2510     1.4558   245.7600     7.0052    -0.0018
  770   15.380   3323.04     7.1868     0.1058     0.0142     0.1538     7.1940     1.4477   246.0800     6.9480    -0.0197
  771   15.400   3324.07     6.3093     0.1102     0.0405     0.1540     6.3226     1.6363   246.4000     6.0762    -0.0201
  772   15.420   3325.08     5.0317     0.1086     0.0085     0.1542     5.0377     1.9637   246.7200     4.7910    -0.0294
  773   15.440   3326.12     3.7636     0.1036     0.0198     0.1544     3.7689     2.4343   247.0400     3.5219    -0.0403
  774   15.460   3327.12     3.0591     0.1019     0.0852     0.1546     3.0822     3.0497   247.3600     2.8348    -0.0349
  775   15.480   3328.19     2.6839     0.1011     0.1722     0.1548     2.7456     3.5765   247.6800     2.4979    -0.0030
  776   15.500   3329.22     2.3544     0.0969     0.1715     0.1550     2.4293     3.8441   248.0000     2.1813     0.0106
  777   15.520   3330.24     2.1332     0.0864     0.1819     0.1552     2.2071     3.9462   248.3200     1.9587     0.0105
  778   15.540   3331.26     1.9905     0.0745     0.2064     0.1554     2.0754     3.6035   248.6400     1.8268     0.0257
  779   15.560   3332.26     1.7005     0.0639     0.1979     0.1556     1.7864     3.4143   248.9600     1.5374     0.0319
  780   15.580   3333.29     1.4746     0.0535     0.2311     0.1558     1.5637     3.4894   249.2800     1.3145     0.0430
  781   15.600   3334.31     1.5073     0.0451     0.2631     0.1560     1.6156     3.0949   249.6000     1.3660     0.0745
  782   15.620   3335.35     1.6253     0.0400     0.2739     0.1562     1.7357     2.4717   249.9200     1.4858     0.0718
  783   15.640   3336.39     2.1384     0.0528     0.2793     0.1564     2.2596     2.9850   250.2400     2.0094     0.0660
  784   15.660   3337.37     3.1375     0.0783     0.2304     0.1566     3.2365     2.9166   250.5600     2.9859     0.0267
  785   15.680   3338.44     3.4208     0.0903     0.1066     0.1568     3.4797     2.6261   250.8800     3.2288    -0.0052
  786   15.700   3339.46     3.0327     0.0847     0.0551     0.1570     3.0591     2.5764   251.2000     2.8079    -0.0336
  787   15.720   3340.48     2.4669     0.0736     0.0910     0.1572     2.4968     2.7356   251.5200     2.2453    -0.0381
  788   15.740   3341.51     2.0409     0.0615     0.1841     0.1574     2.1010     2.7947   251.8400     1.8492    -0.0074
  789   15.760   3342.57     1.7244     0.0616     0.1557     0.1576     1.7985     3.4195   252.1600     1.5464     0.0119
  790   15.780   3343.59     1.7090     0.0661     0.2608     0.1578     1.8023     4.0000   252.4800     1.5498     0.0407
  791   15.800   3344.60     2.3028     0.0637     0.2574     0.1580     2.4123     3.0039   252.8000     2.1595     0.0479
  792   15.820   3345.65     2.9148     0.0697     0.2691     0.1582     3.0304     2.5365   253.1200     2.7772     0.0421
  793   15.840   3346.69     3.7074     0.0721     0.1455     0.1584     3.7808     2.0933   253.4400     3.5273     0.0051
  794   15.860   3347.75     4.7371     0.0776     0.1750     0.1586     4.8091     1.7725   253.7600     4.5553     0.0026
  795   15.880   3348.83     6.2864     0.0770     0.0186     0.1588     6.3206     1.3816   254.0800     6.0665    -0.0125
  796   15.900   3349.89     9.0407     0.0667    -0.0092     0.1590     9.0304     0.8394   254.4000     8.7760    -0.0209
  797   15.920   3350.94    10.8122     0.0598     0.0067     0.1592    10.8174     0.5843   254.7200    10.5626    -0.0139
  798   15.940   3352.00    10.4201     0.0617    -0.0450     0.1594    10.3967     0.5680   255.0400    10.1417    -0.0212
  799   15.960   3353.07     8.9611     0.0725    -0.1022     0.1596     8.9328     0.7902   255.3600     8.6774    -0.0263
  800   15.980   3354.05     7.3154     0.0883    -0.1313     0.1598     7.2706     1.0848   255.6800     7.0149    -0.0383
  801   16.000   3355.09     5.5054     0.1126    -0.1761     0.1600     5.4376     1.9381   256.0000     5.1816    -0.0626
  802   16.020   3356.13     4.1632     0.1165    -0.1591     0.1602     4.0924     2.4532   256.3200     3.8360    -0.0860
  803   16.040   3357.13     3.2846     0.1067    -0.1040     0.1604     3.2319     3.0322   256.6400     2.9753    -0.0961
  804   16.060   3358.12     2.5275     0.0955    -0.0573     0.1606     2.4952     3.5716   256.9600     2.2382    -0.1061
  805   16.080   3359.14     1.9287     0.0840     0.0416     0.1608     1.9245     4.0760   257.2800     1.6672    -0.1017
  806   16.100   3360.17     1.3826     0.0701     0.1894     0.1610     1.4460     4.7152   257.6000     1.1884    -0.0066
  807   16.120   3361.20     1.1852     0.0692     0.2792     0.1612     1.2866     5.7048   257.9200     1.0287     0.0784
  808   16.140   3362.23     1.4570     0.0725     0.3986     0.1614     1.6123     5.6192   258.2400     1.3541     0.1530
  809   16.160   3363.21     2.2087     0.0699     0.4179     0.1616     2.3822     3.8011   258.5600     2.1236     0.1188
  810   16.180   3364.22     2.5980     0.0665     0.2995     0.1618     2.7564     2.5915   258.8800     2.4975     0.0863
  811   16.200   3365.22     2.3051     0.0704     0.1331     0.1620     2.3672     2.8534   259.2000     2.1080    -0.0076
  812   16.220   3366.26     1.8123     0.0775     0.2149     0.1622     1.8928     4.1334   259.5200     1.6333     0.0188
  813   16.240   3367.30     1.6684     0.0755     0.2136     0.1624     1.7607     4.5838   259.8400     1.5009     0.0383
  814   16.260   3368.32     1.6089     0.0615     0.2303     0.1626     1.7049     3.7176   260.1600     1.4448     0.0458
  815   16.280   3369.33     1.4960     0.0496     0.2553     0.1628     1.5966     3.1565   260.4800     1.3361     0.0574
  816   16.300   3370.36     1.2543     0.0506     0.2978     0.1630     1.3721     3.7059   260.8000     1.1113     0.1061
  817   16.320   3371.40     1.0714     0.0526     0.3727     0.1632     1.2163     4.3626   261.1200     0.9552     0.1902
  818   16.340   3372.41     1.1838     0.0556     0.4669     0.1634     1.3733     4.7209   261.4400     1.1118     0.2587
  819   16.360   3373.46     1.3696     0.0532     0.3852     0.1636     1.5531     3.9052   261.7600     1.2913     0.2115
  820   16.380   3374.43     1.3583     0.0495     0.3750     0.1638     1.5230     3.6495   262.0800     1.2609     0.1811
  821   16.400   3383.53     1.4118     0.0477     0.3433     0.1640     1.5602     3.4845   262.4000     1.2978     0.1475
  822   16.420   3399.83     1.4937     0.0610     0.3144     0.1642     1.6299     4.4562   262.7200     1.3672     0.1194
  823   16.440   3416.13     1.5756     0.0751     0.3365     0.1644     1.6996     4.8551   263.0400     1.4366     0.0912
  824   16.460   3417.46     2.2837     0.0845     0.3715     0.1646     2.4439     3.9111   263.3600     2.1805     0.1000
  825   16.480   3418.44     2.7905     0.0782     0.1922     0.1648     2.9304     2.7938   263.6800     2.6667     0.0625
  826   16.500   3419.47     2.4767     0.0695     0.1754     0.1650     2.5319     2.7838   264.0000     2.2679    -0.0146
  827   16.520   3420.44     2.0022     0.0664     0.1718     0.1652     2.0935     3.2747   264.3200     1.8292     0.0282
  828   16.540   3421.42     1.5616     0.0769     0.2370     0.1654     1.6464     4.8770   264.6400     1.3817     0.0266
  829   16.560   3422.43     1.4045     0.0759     0.3586     0.1656     1.5413     5.3587   264.9600     1.2764     0.1254
  830   16.580   3423.49     1.5607     0.0607     0.3853     0.1658     1.7313     3.9653   265.2800     1.4660     0.1644
  831   16.600   3424.48     1.7151     0.0430     0.3076     0.1660     1.8571     2.5080   265.6000     1.5915     0.1080
  832   16.620   3425.50     1.6602     0.0383     0.2759     0.1662     1.7786     2.2633   265.9200     1.5127     0.0765
  833   16.640   3426.51     1.3878     0.0396     0.3195     0.1664     1.5084     2.5878   266.2400     1.2422     0.0981
  834   16.660   3427.46     1.2506     0.0539     0.4683     0.1666     1.4257     4.2974   266.5600     1.1591     0.2157
  835   16.680   3428.53     1.8174     0.0649     0.4990     0.1668     2.0331     4.3236   266.8800     1.7662     0.1978
  836   16.700   3429.55     2.4206     0.0592     0.2699     0.1670     2.5765     2.4789   267.2000     2.3093     0.0887
  837   16.720   3430.58     2.4431     0.0538     0.1335     0.1672     2.5135     2.2024   267.5200     2.2460    -0.0003
  838   16.740   3431.59     2.0330     0.0542     0.1879     0.1674     2.0975     2.5050   267.8400     1.8297    -0.0070
  839   16.760   3432.63     1.6038     0.0546     0.2409     0.1676     1.7026     3.3755   268.1600     1.4344     0.0476
  840   16.780   3433.67     1.2775     0.0485     0.2735     0.1678     1.3803     3.5956   268.4800     1.1118     0.0701
  841   16.800   3434.65     1.1857     0.0430     0.4091     0.1680     1.3401     3.5910   268.8000     1.0713     0.1857
  842   16.820   3435.67     1.2115     0.0419     0.4424     0.1682     1.3933     3.4843   269.1200     1.1242     0.2353
  843   16.840   3436.67     1.2281     0.0387     0.4578     0.1684     1.4188     3.1672   269.4400     1.1493     0.2485
  844   16.860   3437.68     1.3719     0.0382     0.4628     0.1686     1.5694     2.8174   269.7600     1.2997     0.2326
  845   16.880   3438.74     1.5466     0.0543     0.3962     0.1688     1.7239     3.5139   270.0800     1.4538     0.1742
  846   16.900   3439.75     1.6766     0.0560     0.3929     0.1690     1.8383     3.4611   270.4000     1.5679     0.1381
  847   16.920   3440.74     1.8663     0.0594     0.4392     0.1692     2.0435     3.2001   270.7200     1.7727     0.1423
  848   16.940   3441.74     2.0668     0.0727     0.3957     0.1694     2.2543     3.5304   271.0400     1.9833     0.1397
  849   16.960   3442.73     2.0979     0.0756     0.3102     0.1696     2.2274     3.6316   271.3600     1.9560     0.0709
  850   16.980   3443.74     2.2408     0.0739     0.2841     0.1698     2.3609     3.3127   271.6800     2.0892     0.0556
  851   17.000   3444.77     2.4074     0.0691     0.2455     0.1700     2.5212     2.8708   272.0000     2.2492     0.0449
  852   17.020   3445.77     2.1667     0.0578     0.2324     0.1702     2.2577     2.6273   272.3200     1.9854     0.0235
  853   17.040   3446.75     1.7600     0.0526     0.2304     0.1704     1.8618     2.9604   272.6400     1.5892     0.0452
  854   17.060   3447.77     1.4191     0.0638     0.3455     0.1706     1.5415     4.1378   272.9600     1.2685     0.0960
  855   17.080   3448.74     1.6161     0.0619     0.4385     0.1708     1.7892     4.2052   273.2800     1.5159     0.1591
  856   17.100   3449.74     1.9898     0.0607     0.4234     0.1710     2.1810     3.4078   273.6000     1.9074     0.1499
  857   17.120   3450.77     2.5029     0.0653     0.3711     0.1712     2.6533     2.7256   273.9200     2.3794     0.0788
  858   17.140   3451.81     2.9243     0.0727     0.4110     0.1714     3.0953     2.7515   274.2400     2.8211     0.0837
  859   17.160   3452.90     3.9374     0.0746     0.2429     0.1716     4.0634     1.9594   274.5600     3.7888     0.0339
  860   17.180   3453.90     4.6021     0.0795     0.0269     0.1718     4.6376     1.8375   274.8800     4.3627    -0.0199
  861   17.200   3454.93     4.4002     0.0786    -0.0786     0.1720     4.3710     1.7264   275.2000     4.0958    -0.0589
  862   17.220   3455.90     3.9609     0.0763    -0.0754     0.1722     3.9330     1.8349   275.5200     3.6575    -0.0652
  863   17.240   3456.93     3.5387     0.0787    -0.0747     0.1724     3.5045     2.1161   275.8400     3.2286    -0.0786
  864   17.260   3457.96     3.2224     0.0751    -0.0701     0.1726     3.2058     2.2200   276.1600     2.9296    -0.0726
  865   17.280   3459.00     2.8609     0.0695    -0.0487     0.1728     2.8227     2.2979   276.4800     2.5462    -0.1035
  866   17.300   3460.06     2.5709     0.0672    -0.0135     0.1730     2.5692     2.5960   276.8000     2.2924    -0.0774
  867   17.320   3461.09     2.2399     0.0589     0.0067     0.1732     2.2396     2.6022   277.1200     1.9625    -0.0886
  868   17.340   3462.10     1.9297     0.0533    -0.0185     0.1734     1.9265     2.7422   277.4400     1.6491    -0.1105
  869   17.360   3463.10     1.6318     0.0492     0.0865     0.1736     1.6544     2.8853   277.7600     1.3766    -0.0865
  870   17.380   3464.07     1.3223     0.0439     0.1950     0.1738     1.3902     3.0825   278.0800     1.1121    -0.0098
  871   17.400   3465.12     1.0933     0.0418     0.3091     0.1740     1.1945     3.8111   278.4000     0.9161     0.0725
  872   17.420   3466.15     1.1295     0.0450     0.3401     0.1742     1.2721     4.0166   278.7200     0.9933     0.1663
  873   17.440   3467.16     1.2252     0.0501     0.3589     0.1744     1.3720     4.3093   279.0400     1.0930     0.1603
  874   17.460   3468.20     1.6485     0.0550     0.3646     0.1746     1.8024     3.6684   279.3600     1.5230     0.1266
  875   17.480   3469.19     2.1878     0.0583     0.2680     0.1748     2.3197     3.0674   279.6800     2.0400     0.0695
  876   17.500   3470.19     2.5132     0.0610     0.1363     0.1750     2.5896     2.5321   280.0000     2.3096     0.0031
  877   17.520   3471.21     2.5817     0.0632     0.0863     0.1752     2.6204     2.4625   280.3200     2.3401    -0.0354
  878   17.540   3472.27     2.7012     0.0678     0.0068     0.1754     2.7163     2.5195   280.6400     2.4357    -0.0571
  879   17.560   3473.28     2.9634     0.0719    -0.0062     0.1756     2.9593     2.4510   280.9600     2.6783    -0.0693
  880   17.580   3474.29     3.4511     0.0667    -0.0003     0.1758     3.4508     1.9518   281.2800     3.1695    -0.0557
  881   17.600   3475.32     3.8594     0.0702    -0.0198     0.1760     3.8565     1.8701   281.6000     3.5749    -0.0511
  882   17.620   3476.34     3.7615     0.0786    -0.0316     0.1762     3.7419     2.0808   281.9200     3.4600    -0.0644
  883   17.640   3477.33     3.4170     0.0739    -0.0139     0.1764     3.4163     2.0672   282.2400     3.1340    -0.0568
  884   17.660   3478.34     2.8724     0.0659    -0.0528     0.1766     2.8547     2.0607   282.5600     2.5722    -0.0853
  885   17.680   3479.34     2.1631     0.0702    -0.0185     0.1768     2.1467     2.8909   282.8800     1.8638    -0.1158
  886   17.700   3480.37     1.8481     0.0822     0.1107     0.1770     1.8707     4.1750   283.2000     1.5875    -0.0774
  887   17.720   3481.40     1.9971     0.0765     0.2047     0.1772     2.0681     4.1080   283.5200     1.7846    -0.0046
  888   17.740   3482.48     2.3505     0.0661     0.2104     0.1774     2.4558     3.0550   283.8400     2.1720     0.0338
  889   17.760   3483.48     2.4547     0.0607     0.1616     0.1776     2.5192     2.4415   284.1600     2.2351    -0.0108
  890   17.780   3484.46     2.1735     0.0612     0.2488     0.1778     2.2648     2.6284   284.4800     1.9804     0.0203
  891   17.800   3485.48     1.7652     0.0638     0.2727     0.1780     1.8675     3.2301   284.8000     1.5827     0.0417
  892   17.820   3486.50     1.6203     0.0607     0.4424     0.1782     1.7896     3.6877   285.1200     1.5045     0.1491
  893   17.840   3487.56     1.8187     0.0623     0.4007     0.1784     1.9971     3.4336   285.4400     1.7117     0.1439
  894   17.860   3488.61     1.8458     0.0660     0.3970     0.1786     2.0132     3.6306   285.7600     1.7274     0.1276
  895   17.880   3489.59     2.1185     0.0664     0.4522     0.1788     2.2941     3.3318   286.0800     2.0080     0.1190
  896   17.900   3490.61     2.3570     0.0664     0.4007     0.1790     2.5540     2.9180   286.4000     2.2676     0.1290
  897   17.920   3491.60     2.3636     0.0666     0.2638     0.1792     2.4976     2.7041   286.7200     2.2109     0.0623
  898   17.940   3492.60     2.0137     0.0645     0.3450     0.1794     2.1587     3.0415   287.0400     1.8716     0.0887
  899   17.960   3493.66     1.7307     0.0664     0.4192     0.1796     1.8884     3.7051   287.3600     1.6011     0.1233
  900   17.980   3494.71     1.6767     0.0647     0.4678     0.1798     1.8644     3.8890   287.6800     1.5767     0.1694
  901   18.000   3495.71     1.6626     0.0489     0.5463     0.1800     1.8838     2.9433   288.0000     1.5958     0.2172
  902   18.020   3496.71     1.7113     0.0472     0.5077     0.1802     1.9345     2.8054   288.3200     1.6462     0.2134
  903   18.040   3497.72     1.4959     0.0415     0.5066     0.1804     1.7045     2.5793   288.6400     1.4159     0.2239
  904   18.060   3498.72     1.3609     0.0397     0.5775     0.1806     1.5861     2.8597   288.9600     1.2971     0.2745
  905   18.080   3499.72     1.3026     0.0409     0.6565     0.1808     1.5690     3.1371   289.2800     1.2797     0.3542
  906   18.100   3500.76     1.3302     0.0349     0.6925     0.1810     1.6172     2.6373   289.6000     1.3276     0.3784
  907   18.120   3501.78     1.4465     0.0322     0.7146     0.1812     1.7457     2.2816   289.9200     1.4557     0.3648
  908   18.140   3502.82     1.4567     0.0321     0.6846     0.1814     1.7457     2.2263   290.2400     1.4555     0.3482
  909   18.160   3503.79     1.4597     0.0349     0.7284     0.1816     1.7597     2.3948   290.5600     1.4691     0.3625
  910   18.180   3504.81     1.4239     0.0362     0.7394     0.1818     1.7249     2.5088   290.8800     1.4341     0.3731
  911   18.200   3505.76     1.4062     0.0371     0.7917     0.1820     1.7386     2.6644   291.2000     1.4474     0.4210
  912   18.220   3506.83     1.4685     0.0392     0.7465     0.1822     1.7829     2.7774   291.5200     1.4914     0.3799
  913   18.240   3507.89     1.4604     0.0467     0.7698     0.1824     1.7833     3.3151   291.8400     1.4915     0.3933
  914   18.260   3508.92     1.3810     0.0549     0.7607     0.1826     1.7030     3.9384   292.1600     1.4109     0.4140
  915   18.280   3509.89     1.4377     0.0581     0.8150     0.1828     1.7738     4.1084   292.4800     1.4813     0.4168
  916   18.300   3510.88     1.5326     0.0565     0.8000     0.1830     1.8685     3.7133   292.8000     1.5757     0.3915
  917   18.320   3512.52     1.5632     0.0512     0.7341     0.1832     1.8853     3.3154   293.1200     1.5922     0.3663
  918   18.340   3527.56     1.5094     0.0515     0.6393     0.1834     1.7917     3.2900   293.4400     1.4982     0.3229
  919   18.360   3542.60     1.4556     0.0504     0.5863     0.1836     1.6981     3.3616   293.7600     1.4043     0.2794
  920   18.380   3545.79     1.3787     0.0469     0.6685     0.1838     1.6497     3.3909   294.0800     1.3556     0.3405
  921   18.400   3546.75     1.3072     0.0415     0.7430     0.1840     1.6078     3.1601   294.4000     1.3134     0.4049
  922   18.420   3547.76     1.2923     0.0357     0.7958     0.1842     1.6199     2.7542   294.7200     1.3252     0.4496
  923   18.440   3548.76     1.2677     0.0342     0.8123     0.1844     1.6077     2.6923   295.0400     1.3127     0.4764
  924   18.460   3549.77     1.2602     0.0337     0.8431     0.1846     1.6096     2.6700   295.3600     1.3142     0.4924
  925   18.480   3550.80     1.2595     0.0321     0.8439     0.1848     1.6144     2.5488   295.6800     1.3187     0.5007
  926   18.500   3551.80     1.2754     0.0349     0.8912     0.1850     1.6419     2.7347   296.0000     1.3459     0.5108
  927   18.520   3552.81     1.2878     0.0411     0.8897     0.1852     1.6616     3.1991   296.3200     1.3653     0.5162
  928   18.540   3553.80     1.4607     0.0420     0.8961     0.1854     1.8355     2.9101   296.6400     1.5389     0.4602
  929   18.560   3554.78     1.6961     0.0421     0.8664     0.1856     2.0746     2.6219   296.9600     1.7776     0.4030
  930   18.580   3555.79     1.8501     0.0440     0.6969     0.1858     2.1633     2.3942   297.2800     1.8661     0.2999
  931   18.600   3556.77     1.8205     0.0436     0.6615     0.1860     2.0987     2.3892   297.6000     1.8011     0.2645
  932   18.620   3557.84     1.6219     0.0393     0.6385     0.1862     1.8996     2.3993   297.9200     1.6017     0.2968
  933   18.640   3558.82     1.4985     0.0489     0.6942     0.1864     1.7681     3.1870   298.2400     1.4699     0.3100
  934   18.660   3559.85     1.3814     0.0571     0.7721     0.1866     1.7045     4.0295   298.5600     1.4059     0.4144
  935   18.680   3560.83     1.5631     0.0538     0.8098     0.1868     1.8927     3.7650   298.8800     1.5938     0.3756
  936   18.700   3561.86     1.7389     0.0492     0.7745     0.1870     2.0863     2.9676   299.2000     1.7871     0.3584
  937   18.720   3562.86     1.8872     0.0474     0.6352     0.1872     2.1764     2.5256   299.5200     1.8769     0.2671
  938   18.740   3563.90     1.6629     0.0472     0.6132     0.1874     1.9370     2.8098   299.8400     1.6371     0.2841
  939   18.760   3564.95     1.3967     0.0453     0.6948     0.1876     1.6547     3.2033   300.1600     1.3545     0.3152
  940   18.780   3565.98     1.3249     0.0481     0.7983     0.1878     1.6499     3.6137   300.4800     1.3495     0.4343
  941   18.800   3566.97     1.3040     0.0379     0.8279     0.1880     1.6481     2.8913   300.8000     1.3473     0.4686
  942   18.820   3568.01     1.3012     0.0352     0.8434     0.1882     1.6577     2.7035   301.1200     1.3566     0.4870
  943   18.840   3569.04     1.3172     0.0342     0.8537     0.1884     1.6752     2.6033   301.4400     1.3738     0.4833
  944   18.860   3570.02     1.3684     0.0326     0.8443     0.1886     1.7193     2.3780   301.7600     1.4176     0.4564
  945   18.880   3571.04     1.2984     0.0339     0.8733     0.1888     1.6621     2.6099   302.0800     1.3600     0.4980
  946   18.900   3572.03     1.2871     0.0351     0.8861     0.1890     1.6523     2.7245   302.4000     1.3499     0.5040
  947   18.920   3573.09     1.2853     0.0355     0.9068     0.1892     1.6631     2.7580   302.7200     1.3604     0.5222
  948   18.940   3574.07     1.2752     0.0355     0.9066     0.1894     1.6533     2.7815   303.0400     1.3503     0.5265
  949   18.960   3575.09     1.2749     0.0347     0.8883     0.1896     1.6512     2.7256   303.3600     1.3479     0.5241
  950   18.980   3576.05     1.2806     0.0339     0.8969     0.1898     1.6590     2.6440   303.6800     1.3554     0.5248
  951   19.000   3577.04     1.2693     0.0346     0.9224     0.1900     1.6538     2.7317   304.0000     1.3498     0.5376
  952   19.020   3578.06     1.2883     0.0371     0.8959     0.1902     1.6639     2.8716   304.3200     1.3596     0.5180
  953   19.040   3579.09     1.2296     0.0389     0.9337     0.1904     1.6159     3.1604   304.6400     1.3113     0.5563
  954   19.060   3580.09     1.2455     0.0363     0.9433     0.1906     1.6416     2.9391   304.9600     1.3367     0.5631
  955   19.080   3581.10     1.2482     0.0237     0.9351     0.1908     1.6434     1.9024   305.2800     1.3381     0.5607
  956   19.100   3582.13     1.2668     0.0266     0.9422     0.1910     1.6569     2.1227   305.6000     1.3513     0.5461
  957   19.120   3583.11     1.3450     0.0495     1.0000     0.1912     1.7535     3.8220   305.9200     1.4476     0.5401
  958   19.140   3584.16     2.1657     0.0780     1.0444     0.1914     2.5994     4.7458   306.2400     2.2931     0.3729
  959   19.160   3585.21     3.2012     0.0826     0.9185     0.1916     3.6309     3.0206   306.5600     3.3244     0.2518
  960   19.180   3586.20     3.4605     0.0823     0.2387     0.1918     3.6642     2.3789   306.8800     3.3573     0.0844
  961   19.200   3587.22     2.9406     0.0806     0.2120     0.1920     3.0134     2.4964   307.2000     2.7062    -0.0067
  962   19.220   3588.25     2.1142     0.0825     0.3220     0.1922     2.2514     3.2898   307.5200     1.9439     0.0714
  963   19.240   3589.29     1.5353     0.0752     0.4926     0.1924     1.6991     4.3313   307.8400     1.3913     0.1437
  964   19.260   3590.29     1.4197     0.0568     0.6292     0.1926     1.6701     3.9876   308.1600     1.3619     0.2962
  965   19.280   3591.32     1.3859     0.0367     0.7037     0.1928     1.6713     2.6129   308.4800     1.3629     0.3572
  966   19.300   3592.35     1.3542     0.0337     0.7986     0.1930     1.6765     2.4785   308.8000     1.3677     0.4199
  967   19.320   3593.36     1.3988     0.0327     0.8526     0.1932     1.7485     2.4136   309.1200     1.4393     0.4442
  968   19.340   3594.38     1.4612     0.0325     0.8489     0.1934     1.8267     2.2452   309.4400     1.5173     0.4461
  969   19.360   3595.41     1.5507     0.0334     0.7787     0.1936     1.8896     2.1825   309.7600     1.5799     0.3883
  970   19.380   3596.41     1.3230     0.0344     0.7818     0.1938     1.6422     2.5801   310.0800     1.3321     0.4252
  971   19.400   3597.43     1.3002     0.0338     0.8623     0.1940     1.6530     2.6031   310.4000     1.3426     0.4811
  972   19.420   3598.42     1.2989     0.0347     0.8847     0.1942     1.6686     2.6713   310.7200     1.3579     0.5052
  973   19.440   3599.43     1.2803     0.0344     0.9197     0.1944     1.6612     2.6824   311.0400     1.3501     0.5278
  974   19.460   3600.44     1.2698     0.0351     0.9409     0.1946     1.6653     2.7632   311.3600     1.3540     0.5518
  975   19.480   3601.47     1.2570     0.0345     0.9413     0.1948     1.6500     2.7458   311.6800     1.3383     0.5536
  976   19.500   3602.42     1.2668     0.0358     0.9574     0.1950     1.6707     2.8442   312.0000     1.3587     0.5644
  977   19.520   3603.44     1.2821     0.0359     0.9597     0.1952     1.6843     2.8002   312.3200     1.3719     0.5557
  978   19.540   3604.44     1.2896     0.0357     0.9634     0.1954     1.6940     2.7693   312.6400     1.3814     0.5557
  979   19.560   3605.45     1.3037     0.0347     0.9650     0.1956     1.7123     2.6587   312.9600     1.3994     0.5556
  980   19.580   3606.45     1.3022     0.0355     0.9493     0.1958     1.7020     2.7325   313.2800     1.3888     0.5446
  981   19.600   3607.48     1.3299     0.0366     0.9600     0.1960     1.7355     2.7839   313.6000     1.4219     0.5413
  982   19.620   3608.48     1.3664     0.0345     0.8973     0.1962     1.7668     2.5657   313.9200     1.4528     0.5211
  983   19.640   3609.50     1.3625     0.0327     0.9283     0.1964     1.7462     2.4047   314.2400     1.4320     0.5008
  984   19.660   3610.50     1.3526     0.0356     0.9070     0.1966     1.7314     2.6259   314.5600     1.4169     0.4979
  985   19.680   3611.53     1.3470     0.0394     0.9603     0.1968     1.7476     2.9433   314.8800     1.4327     0.5284
  986   19.700   3612.54     1.4576     0.0379     1.0030     0.1970     1.8731     2.7096   315.2000     1.5579     0.5086
  987   19.720   3613.54     1.6065     0.0377     0.8619     0.1972     2.0063     2.4506   315.5200     1.6908     0.4467
  988   19.740   3614.58     1.5977     0.0375     0.7767     0.1974     1.9338     2.2622   315.8400     1.6180     0.3725
  989   19.760   3615.59     1.4583     0.0387     0.7649     0.1976     1.7760     2.5301   316.1600     1.4598     0.3834
  990   19.780   3616.59     1.3367     0.0404     0.7802     0.1978     1.6603     2.9872   316.4800     1.3438     0.4263
  991   19.800   3617.65     1.2264     0.0406     0.8551     0.1980     1.5793     3.2935   316.8000     1.2625     0.5088
  992   19.820   3618.69     1.1807     0.0361     0.8818     0.1982     1.5497     3.0259   317.1200     1.2326     0.5521
  993   19.840   3619.71     1.1448     0.0318     0.9012     0.1984     1.5200     2.7775   317.4400     1.2025     0.5777
  994   19.860   3620.71     1.1411     0.0302     0.9080     0.1986     1.5212     2.6423   317.7600     1.2034     0.5870
  995   19.880   3621.69     1.1196     0.0300     0.8986     0.1988     1.4995     2.6746   318.0800     1.1814     0.5973
  996   19.900   3622.71     1.0953     0.0288     0.9027     0.1990     1.4719     2.6249   318.4000     1.1535     0.6050
  997   19.920   3623.74     1.0833     0.0283     0.9015     0.1992     1.4592     2.6012   318.7200     1.1405     0.6101
  998   19.940   3624.76     1.0712     0.0281     0.9178     0.1994     1.4557     2.6287   319.0400     1.1367     0.6300
  999   19.960   3625.74     1.1191     0.0282     0.9020     0.1996     1.5020     2.5279   319.3600     1.1827     0.6023
 1000   19.980   3626.76     1.1957     0.0290     0.8650     0.1998     1.5641     2.4368   319.6800     1.2444     0.5446
 1001   20.000   3627.74     1.2797     0.0308     0.8298     0.2000     1.6331     2.4116   320.0000     1.3131     0.4886
 1002   20.020   3628.74     1.3421     0.0296     0.7955     0.2002     1.6824     2.2088   320.3200     1.3621     0.4478
 1003   20.040   3629.73     1.3674     0.0275     0.7674     0.2004     1.6933     2.0145   320.6400     1.3726     0.4193
 1004   20.060   3630.77     1.3493     0.0282     0.7610     0.2006     1.6666     2.0860   320.9600     1.3456     0.4123
 1005   20.080   3631.79     1.2989     0.0321     0.7685     0.2008     1.6201     2.4626   321.2800     1.2988     0.4343
 1006   20.100   3632.79     1.2716     0.0315     0.7724     0.2010     1.5963     2.4778   321.6000     1.2747     0.4488
 1007   20.120   3633.82     1.3642     0.0294     0.7707     0.2012     1.6896     2.2504   321.9200     1.3677     0.4196
 1008   20.140   3634.80     1.5083     0.0315     0.7329     0.2014     1.8208     2.1672   322.2400     1.4985     0.3622
 1009   20.160   3635.79     1.5426     0.0341     0.7291     0.2016     1.8479     2.1964   322.5600     1.5253     0.3443
 1010   20.180   3636.80     1.5509     0.0376     0.7235     0.2018     1.8552     2.4489   322.8800     1.5323     0.3411
 1011   20.200   3637.87     1.7351     0.0398     0.6853     0.2020     2.0295     2.4363   323.2000     1.7063     0.2927
 1012   20.220   3638.89     1.8626     0.0388     0.5864     0.2022     2.1279     2.1280   323.5200     1.8044     0.2380
 1013   20.240   3639.88     1.8146     0.0378     0.5235     0.2024     2.0415     2.0127   323.8400     1.7176     0.1966
 1014   20.260   3640.90     1.5605     0.0398     0.5623     0.2026     1.7723     2.5175   324.1600     1.4482     0.2085
 1015   20.280   3641.90     1.3561     0.0455     0.6499     0.2028     1.6194     3.2585   324.4800     1.2949     0.3276
 1016   20.300   3642.93     1.2390     0.0513     0.7264     0.2030     1.5286     3.9995   324.8000     1.2038     0.4042
 1017   20.320   3644.00     1.4801     0.0533     0.7498     0.2032     1.7959     4.0037   325.1200     1.4707     0.3739
 1018   20.340   3644.98     1.8371     0.0558     0.6445     0.2034     2.1373     3.3037   325.4400     1.8118     0.2829
 1019   20.360   3646.91     2.2141     0.0559     0.4989     0.2036     2.4492     2.6999   325.7600     2.1234     0.1710
 1020   20.380   3667.34     3.0617     0.0615     0.3224     0.2038     3.2227     2.8280   326.0800     2.8966     0.0926
 1021   20.400   3687.78     3.9093     0.0652     0.1459     0.2040     3.9961     3.0011   326.4000     3.6697     0.0142
 1022   20.420   3696.59     4.3540     0.0711     0.0362     0.2042     4.3905     1.6602   326.7200     4.0638    -0.0289
 1023   20.440   3697.69     4.1757     0.0773     0.0334     0.2044     4.1808     1.8417   327.0400     3.8537    -0.0498
 1024   20.460   3698.67     3.8650     0.0794     0.0931     0.2046     3.8968     2.0415   327.3600     3.5695    -0.0360
 1025   20.480   3699.68     3.5046     0.0755     0.1133     0.2048     3.5498     2.1380   327.6800     3.2221    -0.0302
 1026   20.500   3700.71     3.4771     0.0732     0.1730     0.2050     3.5439     2.1116   328.0000     3.2159    -0.0143
 1027   20.520   3701.71     3.4533     0.0659     0.1718     0.2052     3.5259     1.8878   328.3200     3.1975    -0.0102
 1028   20.540   3702.71     3.2501     0.0561     0.1561     0.2054     3.3187     1.7184   328.6400     2.9900    -0.0142
 1029   20.560   3703.69     2.8512     0.0526     0.2382     0.2056     2.9411     1.8339   328.9600     2.6122     0.0037
 1030   20.580   3704.70     2.4070     0.0484     0.1741     0.2058     2.4858     1.9945   329.2800     2.1565    -0.0092
 1031   20.600   3705.76     1.9785     0.0537     0.2488     0.2060     2.0788     2.6941   329.6000     1.7492     0.0192
 1032   20.620   3706.76     1.8503     0.0573     0.3151     0.2062     1.9664     3.0717   329.9200     1.6364     0.0429
 1033   20.640   3707.76     1.9539     0.0551     0.3972     0.2064     2.1120     2.9084   330.2400     1.7817     0.0951
 1034   20.660   3708.78     2.1103     0.0508     0.3871     0.2066     2.2806     2.4893   330.5600     1.9500     0.1020
 1035   20.680   3709.74     2.2395     0.0488     0.3461     0.2068     2.3875     2.2089   330.8800     2.0566     0.0708
 1036   20.700   3710.76     2.0472     0.0494     0.3582     0.2070     2.1929     2.2569   331.2000     1.8617     0.0753
 1037   20.720   3711.83     1.7078     0.0495     0.3806     0.2072     1.8573     2.6857   331.5200     1.5258     0.0974
 1038   20.740   3712.86     1.7151     0.0528     0.4633     0.2074     1.8991     3.2021   331.8400     1.5673     0.1470
 1039   20.760   3713.91     1.8472     0.0420     0.4689     0.2076     2.0456     2.3491   332.1600     1.7134     0.1545
 1040   20.780   3714.93     1.7355     0.0354     0.4577     0.2078     1.9276     1.9409   332.4800     1.5951     0.1565
 1041   20.800   3715.93     1.5517     0.0317     0.4946     0.2080     1.7503     1.9550   332.8000     1.4175     0.1870
 1042   20.820   3716.94     1.4521     0.0311     0.5730     0.2082     1.6896     2.1348   333.1200     1.3565     0.2635
 1043   20.840   3717.92     1.3536     0.0312     0.6737     0.2084     1.6212     2.1959   333.4400     1.2878     0.3331
 1044   20.860   3718.99     1.3456     0.0263     0.7407     0.2086     1.6436     1.9627   333.7600     1.3098     0.3824
 1045   20.880   3720.02     1.4484     0.0254     0.7421     0.2088     1.7687     1.8242   334.0800     1.4346     0.3862
 1046   20.900   3721.08     1.5786     0.0294     0.7148     0.2090     1.8790     1.8699   334.4000     1.5446     0.3279
 1047   20.920   3722.04     1.5906     0.0289     0.7531     0.2092     1.9092     1.8024   334.7200     1.5744     0.3489
 1048   20.940   3723.03     1.5480     0.0291     0.7222     0.2094     1.8555     1.8502   335.0400     1.5205     0.3438
 1049   20.960   3724.05     1.5154     0.0315     0.7143     0.2096     1.8178     2.0737   335.3600     1.4824     0.3443
 1050   20.980   3725.08     1.4483     0.0315     0.7912     0.2098     1.7668     2.1203   335.6800     1.4311     0.3831
 1051   21.000   3726.10     1.4443     0.0286     0.8036     0.2100     1.7775     1.9790   336.0000     1.4415     0.4045
 1052   21.020   3727.14     1.4848     0.0312     0.7875     0.2102     1.8182     2.1070   336.3200     1.4818     0.3939
 1053   21.040   3728.11     1.4871     0.0298     0.8094     0.2104     1.8206     1.9939   336.6400     1.4840     0.3935
 1054   21.060   3729.14     1.4187     0.0266     0.7801     0.2106     1.7481     1.8637   336.9600     1.4112     0.4066
 1055   21.080   3730.12     1.3622     0.0280     0.8105     0.2108     1.7019     2.0500   337.2800     1.3646     0.4383
 1056   21.100   3731.17     1.3517     0.0276     0.8268     0.2110     1.6927     2.0426   337.6000     1.3551     0.4435
 1057   21.120   3732.17     1.3433     0.0262     0.8149     0.2112     1.6888     1.9373   337.9200     1.3509     0.4526
 1058   21.140   3733.19     1.3182     0.0278     0.8250     0.2114     1.6610     2.0919   338.2400     1.3228     0.4572
 1059   21.160   3734.16     1.3066     0.0241     0.8677     0.2116     1.6654     1.8350   338.5600     1.3268     0.4844
 1060   21.180   3735.15     1.3341     0.0239     0.8700     0.2118     1.7010     1.8134   338.8800     1.3621     0.4859
 1061   21.200   3736.19     1.3599     0.0365     0.8734     0.2120     1.7232     2.7207   339.2000     1.3840     0.4718
 1062   21.220   3737.24     1.4837     0.0485     0.9297     0.2122     1.8671     3.4461   339.5200     1.5276     0.4587
 1063   21.240   3738.29     1.9610     0.0544     0.8877     0.2124     2.3496     3.2428   339.8400     2.0097     0.3564
 1064   21.260   3739.30     2.4122     0.0584     0.5988     0.2126     2.7138     2.5173   340.1600     2.3736     0.2133
 1065   21.280   3740.27     2.2340     0.0602     0.4523     0.2128     2.4196     2.5176   340.4800     2.0791     0.1098
 1066   21.300   3741.30     1.7337     0.0594     0.4966     0.2130     1.9497     3.0993   340.8000     1.6089     0.1885
 1067   21.320   3742.32     1.3765     0.0610     0.6093     0.2132     1.6085     4.0426   341.1200     1.2674     0.2685
 1068   21.340   3743.40     1.2879     0.0467     0.7181     0.2134     1.5746     3.5909   341.4400     1.2332     0.3806
 1069   21.360   3744.37     1.2958     0.0342     0.7721     0.2136     1.6153     2.6434   341.7600     1.2736     0.4296
 1070   21.380   3745.42     1.2887     0.0282     0.8322     0.2138     1.6297     2.1801   342.0800     1.2877     0.4647
 1071   21.400   3746.37     1.2747     0.0297     0.8577     0.2140     1.6299     2.3145   342.4000     1.2875     0.4908
 1072   21.420   3747.45     1.2444     0.0334     0.9242     0.2142     1.6223     2.6765   342.7200     1.2796     0.5359
 1073   21.440   3748.47     1.2664     0.0361     0.9595     0.2144     1.6663     2.8789   343.0400     1.3232     0.5575
 1074   21.460   3749.48     1.4037     0.0390     0.9678     0.2146     1.8096     2.7915   343.3600     1.4662     0.5129
 1075   21.480   3750.51     1.5244     0.0439     0.8720     0.2148     1.9203     2.9035   343.6800     1.5766     0.4621
 1076   21.500   3751.51     1.5725     0.0456     0.7699     0.2150     1.9004     2.8381   344.0000     1.5564     0.3636
 1077   21.520   3752.46     1.5037     0.0460     0.7745     0.2152     1.8229     3.0399   344.3200     1.4786     0.3685
 1078   21.540   3753.48     1.4908     0.0411     0.7378     0.2154     1.8053     2.7354   344.6400     1.4607     0.3653
 1079   21.560   3754.52     1.3508     0.0398     0.7478     0.2156     1.6639     2.9435   344.9600     1.3189     0.4017
 1080   21.580   3755.57     1.2735     0.0353     0.8179     0.2158     1.6009     2.7456   345.2800     1.2557     0.4492
 1081   21.600   3756.57     1.2324     0.0359     0.8964     0.2160     1.5981     2.9198   345.6000     1.2525     0.5227
 1082   21.620   3757.57     1.2750     0.0335     0.9298     0.2162     1.6643     2.6700   345.9200     1.3183     0.5391
 1083   21.640   3758.55     1.3400     0.0331     0.9524     0.2164     1.7382     2.5204   346.2400     1.3920     0.5256
 1084   21.660   3759.54     1.3963     0.0340     0.8970     0.2166     1.7826     2.4796   346.5600     1.4361     0.4897
 1085   21.680   3760.58     1.3527     0.0348     0.9001     0.2168     1.7348     2.5173   346.8800     1.3880     0.4993
 1086   21.700   3761.62     1.3183     0.0363     0.9618     0.2170     1.7102     2.7088   347.2000     1.3630     0.5255
 1087   21.720   3762.66     1.2994                0.9900     0.2172     1.7105              347.5200     1.3630     0.5588
 1088   21.740   3763.67     1.3131                0.9881     0.2174     1.7323              347.8400     1.3845     0.5639
 1089   21.760   3764.71     1.3017                0.9807     0.2176     1.7126              348.1600     1.3644     0.5575
 1090   21.780   3765.74     1.2556                0.9821     0.2178     1.6661              348.4800     1.3177     0.5765
 1091   21.800   3766.77     1.2224                0.9994     0.2180     1.6402              348.8000     1.2914     0.6014
 1092   21.820   3767.84     1.2287                           0.2182     1.6514              349.1200     1.3023     0.6053
 
 
