

 Program UNIPLOT                         version 05.36.02
 _______________
 (c) Fugro Netherlands Marine, Nootdorp, The Netherlands


 ASCII representation of data plotted on a graph.

 This ASCII file presents data interpolated to values per fixed depth interval.
 The data are corrected for the depth-offset differences between the various 
 transducers in the penetrometer.

 The records at the start of penetration may include no values or anomalous
 values where a depth offset implies incomplete penetration of a particular
 sensor into the ground.

 The records at the end of penetration may include no values for data channels
 where the transducer did not reach this depth.

 The reference level for test values is (1) the ground surface for onshore tests and (2) the seafloor for nearshore and offshore tests.

 UNICAS data file          : CPT-2030.000                            
 Output using command file : PlotASCII.cmd

 ASCII file created at : date          :15-Dec-2021
                         time          :09:31:45
 Project number                        :20024805
 Date of testing                       :14-Dec-2021
 Location                              :Hong Kong Offshore Wind Farm Project
 Test name                             :CPT-2030
 Penetrometer                          :F7.5CKE2HAW2/B/3284
 Serial no                             :1701-3284

 Table description:
 Column ID                             :Parameter name
 ___________________________________________________________________________________
 Rec                                   :Record ID, Record ID [-]
 Depth                                 :Depth, Depth [m]
 Time                                  :Time, Time [s]
 Cone                                  :Cone Resistance, Cone Resistance [MPa]
 Friction                              :Sleeve Friction, Sleeve Friction [MPa]
 Pore 2                                :Porewater Pressure, Porewater Pressure at Shoulder [MPa]
 HydroPress                            :Hydrostatic Pressure, Hydrostatic Pressure [MPa]
 qt                                    :Total Cone Resistance, Total Cone Resistance [MPa]
 Fric_ratio                            :Friction Ratio, Friction Ratio [%]
 SigmaVert                             :Vertical stress, Vertical stress [kPa] as specified in ground model
 Qnet                                  :Net Cone Resistance, Net Cone Resistance [MPa], unit weight as specified in ground model
 Bq                                    :Porewater Pressure Ratio, Porewater Pressure Ratio [-], unit weight as specified in ground model


 Data table:
  Rec    Depth      Time       Cone   Friction     Pore 2 HydroPress         qt Fric_ratio  SigmaVert       Qnet         Bq
   No        m         s        MPa        MPa        MPa        MPa        MPa          %        kPa        MPa          -
    1    0.000   1388.88     0.0000                           0.0000     0.0000                0.0000     0.0000           
    2    0.020   1389.86     0.0039               -0.0002     0.0002     0.0037                0.3200     0.0034    -0.1759
    3    0.040   1390.83     0.0035               -0.0006     0.0004     0.0032                0.6400     0.0026    -0.4289
    4    0.060   1391.77     0.0063     0.0006    -0.0009     0.0006     0.0060    20.9110     0.9600     0.0051    -0.2489
    5    0.080   1392.74     0.0075     0.0002    -0.0009     0.0008     0.0072     2.8142     1.2800     0.0059    -0.2908
    6    0.100   1393.71     0.0099     0.0005    -0.0007     0.0010     0.0095     5.3253     1.6000     0.0079    -0.2390
    7    0.120   1394.66     0.0121     0.0009     0.0004     0.0012     0.0121     7.0244     1.9200     0.0102    -0.1029
    8    0.140   1395.61     0.0159     0.0006     0.0001     0.0014     0.0161     4.2951     2.2400     0.0138    -0.0725
    9    0.160   1396.58     0.0134     0.0008     0.0009     0.0016     0.0135     6.0193     2.5600     0.0109    -0.1463
   10    0.180   1397.56     0.0168     0.0008    -0.0003     0.0018     0.0168     5.4625     2.8800     0.0140    -0.1142
   11    0.200   1398.48     0.0155     0.0009     0.0001     0.0020     0.0153     5.6067     3.2000     0.0121    -0.2177
   12    0.220   1399.49     0.0173     0.0011     0.0001     0.0022     0.0171     6.5450     3.5200     0.0136    -0.1949
   13    0.240   1400.43     0.0184     0.0012     0.0011     0.0024     0.0188     7.0307     3.8400     0.0149    -0.0975
   14    0.260   1401.38     0.0219     0.0010    -0.0011     0.0026     0.0217     4.8777     4.1600     0.0176    -0.1795
   15    0.280   1402.35     0.0176     0.0010     0.0008     0.0028     0.0176     5.4582     4.4800     0.0131    -0.2083
   16    0.300   1403.35     0.0240     0.0012     0.0014     0.0030     0.0243     5.1873     4.8000     0.0195    -0.1156
   17    0.320   1404.27     0.0238     0.0011     0.0047     0.0032     0.0254     4.8056     5.1200     0.0202     0.0226
   18    0.340   1405.28     0.0252     0.0014     0.0079     0.0034     0.0281     6.2287     5.4400     0.0227     0.1559
   19    0.360   1406.23     0.0253     0.0009     0.0058     0.0036     0.0278     3.9021     5.7600     0.0221     0.1065
   20    0.380   1407.18     0.0286     0.0013     0.0046     0.0038     0.0309     4.4162     6.0800     0.0248     0.0656
   21    0.400   1408.14     0.0363     0.0016     0.0033     0.0040     0.0379     4.4832     6.4000     0.0315    -0.0058
   22    0.420   1409.14     0.0370     0.0012     0.0020     0.0042     0.0378     3.2543     6.7200     0.0311    -0.0674
   23    0.440   1410.09     0.0324     0.0015     0.0022     0.0044     0.0333     4.2907     7.0400     0.0263    -0.0827
   24    0.460   1411.04     0.0277     0.0017     0.0004     0.0046     0.0283     5.4755     7.3600     0.0209    -0.1541
   25    0.480   1412.00     0.0294     0.0017     0.0016     0.0048     0.0303     5.8618     7.6800     0.0226    -0.1266
   26    0.500   1412.99     0.0260     0.0018     0.0004     0.0050     0.0264     6.3988     8.0000     0.0184    -0.2407
   27    0.520   1413.96     0.0233     0.0013     0.0061     0.0052     0.0261     5.6473     8.3200     0.0178     0.0804
   28    0.540   1416.97     0.0244     0.0014     0.0038     0.0054     0.0257     6.0738     8.6400     0.0171    -0.1429
   29    0.560   1439.64     0.0328     0.0013     0.0057     0.0056     0.0349     5.4405     8.9600     0.0260    -0.0589
   30    0.580   1462.32     0.0412     0.0012     0.0073     0.0058     0.0441     4.8908     9.2800     0.0348     0.0251
   31    0.600   1467.63     0.0492     0.0016     0.0068     0.0060     0.0521     3.2306     9.6000     0.0425     0.0218
   32    0.620   1468.58     0.0497     0.0014     0.0060     0.0062     0.0524     2.8334     9.9200     0.0425     0.0078
   33    0.640   1469.54     0.0477     0.0016     0.0042     0.0064     0.0499     3.2955    10.2400     0.0397    -0.0278
   34    0.660   1470.54     0.0507     0.0017     0.0072     0.0066     0.0536     3.4144    10.5600     0.0430     0.0069
   35    0.680   1471.46     0.0488     0.0018     0.0089     0.0068     0.0521     3.6805    10.8800     0.0412     0.0221
   36    0.700   1472.48     0.0474     0.0015     0.0080     0.0070     0.0515     3.1060    11.2000     0.0403     0.0728
   37    0.720   1473.42     0.0555     0.0018     0.0125     0.0072     0.0603     3.4250    11.5200     0.0488     0.0890
   38    0.740   1474.37     0.0614     0.0022     0.0145     0.0074     0.0675     3.6887    11.8400     0.0556     0.1246
   39    0.760   1475.33     0.0642     0.0027     0.0126     0.0076     0.0701     4.2578    12.1600     0.0579     0.1083
   40    0.780   1476.28     0.0692     0.0042     0.0101     0.0078     0.0743     6.2360    12.4800     0.0618     0.0713
   41    0.800   1477.27     0.0757     0.0036     0.0061     0.0080     0.0788     4.9128    12.8000     0.0660    -0.0066
   42    0.820   1478.23     0.0782     0.0082     0.0093     0.0082     0.0813    10.3814    13.1200     0.0682    -0.0103
   43    0.840   1479.22     0.0814     0.0094     0.0158     0.0084     0.0870    12.1541    13.4400     0.0736     0.0675
   44    0.860   1480.18     0.0904     0.0092     0.0184     0.0086     0.0982    11.2689    13.7600     0.0845     0.1211
   45    0.880   1481.13     0.2798     0.0085    -0.0466     0.0088     0.2723     4.5823    14.0800     0.2582    -0.0729
   46    0.900   1482.11     0.4184     0.0084    -0.1318     0.0090     0.3787     1.8245    14.4000     0.3643    -0.3163
   47    0.920   1483.08     0.1825     0.0079    -0.1023     0.0092     0.1387     3.3523    14.7200     0.1240    -1.0774
   48    0.940   1484.01     0.1244     0.0078    -0.0692     0.0094     0.0930     6.0444    15.0400     0.0780    -1.0783
   49    0.960   1485.02     0.1094     0.0051    -0.0557     0.0096     0.0844     4.5711    15.3600     0.0690    -1.0056
   50    0.980   1485.97     0.1174     0.0040    -0.0484     0.0098     0.0960     3.4796    15.6800     0.0804    -0.7570
   51    1.000   1486.94     0.1289     0.0041    -0.0422     0.0100     0.1106     3.2904    16.0000     0.0946    -0.5673
   52    1.020   1487.93     0.1410     0.0044    -0.0388     0.0102     0.1242     3.1756    16.3200     0.1079    -0.4648
   53    1.040   1488.88     0.1501     0.0056    -0.0351     0.0104     0.1350     3.8492    16.6400     0.1183    -0.3917
   54    1.060   1489.84     0.1613     0.0065    -0.0358     0.0106     0.1467     4.1158    16.9600     0.1297    -0.3511
   55    1.080   1490.79     0.1780     0.0065    -0.0353     0.0108     0.1627     3.8205    17.2800     0.1454    -0.3244
   56    1.100   1491.75     0.2028     0.0076    -0.0367     0.0110     0.1877     3.8648    17.6000     0.1701    -0.2760
   57    1.120   1492.72     0.2355     0.0095    -0.0344     0.0112     0.2200     4.2261    17.9200     0.2021    -0.2385
   58    1.140   1493.68     0.2674     0.0121    -0.0261     0.0114     0.2558     4.7077    18.2400     0.2376    -0.1646
   59    1.160   1494.65     0.3030     0.0138    -0.0262     0.0116     0.2923     4.7310    18.5600     0.2737    -0.1364
   60    1.180   1495.64     0.3059     0.0150    -0.0464     0.0118     0.2909     4.9203    18.8800     0.2720    -0.1750
   61    1.200   1496.59     0.2916     0.0169    -0.0650     0.0120     0.2646     5.6251    19.2000     0.2454    -0.3114
   62    1.220   1497.55     0.2940     0.0181    -0.0580     0.0122     0.2676     6.3567    19.5200     0.2481    -0.3035
   63    1.240   1498.49     0.3111     0.0170    -0.0494     0.0124     0.2899     5.4876    19.8400     0.2700    -0.2330
   64    1.260   1499.47     0.3168     0.0158    -0.0426     0.0126     0.2976     4.9715    20.1600     0.2775    -0.2096
   65    1.280   1500.41     0.3165     0.0150    -0.0338     0.0128     0.3018     4.7560    20.4800     0.2813    -0.1696
   66    1.300   1501.36     0.3056     0.0138    -0.0276     0.0130     0.2918     4.4883    20.8000     0.2710    -0.1695
   67    1.320   1502.36     0.2956     0.0125    -0.0228     0.0132     0.2861     4.2084    21.1200     0.2650    -0.1353
   68    1.340   1503.32     0.3141     0.0125    -0.0259     0.0134     0.3025     4.0625    21.4400     0.2811    -0.1460
   69    1.360   1504.32     0.2731     0.0130    -0.0354     0.0136     0.2596     4.5663    21.7600     0.2379    -0.1926
   70    1.380   1505.27     0.3310     0.0128    -0.0449     0.0138     0.3133     4.0616    22.0800     0.2913    -0.1919
   71    1.400   1506.23     0.3553     0.0123    -0.0494     0.0140     0.3350     3.6011    22.4000     0.3126    -0.1997
   72    1.420   1507.23     0.3229     0.0108    -0.0478     0.0142     0.3021     3.0739    22.7200     0.2794    -0.2293
   73    1.440   1508.19     0.2568     0.0095    -0.0398     0.0144     0.2383     3.3097    23.0400     0.2153    -0.2747
   74    1.460   1509.12     0.1830     0.0085    -0.0246     0.0146     0.1710     4.3300    23.3600     0.1476    -0.2930
   75    1.480   1510.14     0.1963     0.0073    -0.0190     0.0148     0.1876     3.8536    23.6800     0.1639    -0.2162
   76    1.500   1511.08     0.2040     0.0052    -0.0260     0.0150     0.1948     2.5583    24.0000     0.1708    -0.2167
   77    1.520   1512.03     0.1725     0.0044    -0.0175     0.0152     0.1639     2.3834    24.3200     0.1396    -0.2557
   78    1.540   1513.02     0.1454     0.0042    -0.0152     0.0154     0.1380     2.8156    24.6400     0.1133    -0.2931
   79    1.560   1514.01     0.1652     0.0045    -0.0095     0.0156     0.1605     2.9106    24.9600     0.1356    -0.1980
   80    1.580   1514.97     0.2104     0.0045    -0.0074     0.0158     0.2070     2.2983    25.2800     0.1817    -0.1317
   81    1.600   1515.92     0.2369     0.0046    -0.0044     0.0160     0.2349     1.9867    25.6000     0.2093    -0.0992
   82    1.620   1516.88     0.2277     0.0044    -0.0056     0.0162     0.2256     1.8838    25.9200     0.1996    -0.1067
   83    1.640   1517.86     0.2083     0.0037    -0.0040     0.0164     0.2062     1.7291    26.2400     0.1800    -0.1189
   84    1.660   1518.83     0.1893     0.0033    -0.0016     0.0166     0.1881     1.7071    26.5600     0.1615    -0.1210
   85    1.680   1519.75     0.1678     0.0036     0.0016     0.0168     0.1678     2.1031    26.8800     0.1410    -0.1178
   86    1.700   1520.76     0.1491     0.0035     0.0075     0.0170     0.1513     2.2514    27.2000     0.1241    -0.0957
   87    1.720   1521.71     0.1391     0.0031     0.0127     0.0172     0.1438     2.2035    27.5200     0.1163    -0.0511
   88    1.740   1522.70     0.1439     0.0030     0.0154     0.0174     0.1502     2.0405    27.8400     0.1223    -0.0201
   89    1.760   1523.67     0.1469     0.0030     0.0171     0.0176     0.1537     2.0613    28.1600     0.1256    -0.0101
   90    1.780   1524.64     0.1403     0.0031     0.0207     0.0178     0.1483     2.2231    28.4800     0.1199     0.0109
   91    1.800   1525.60     0.1332     0.0029     0.0252     0.0180     0.1431     2.1264    28.8000     0.1143     0.0497
   92    1.820   1526.57     0.1308     0.0031     0.0294     0.0182     0.1427     2.4355    29.1200     0.1136     0.0886
   93    1.840   1527.56     0.1397     0.0036     0.0313     0.0184     0.1527     2.6180    29.4400     0.1232     0.1009
   94    1.860   1528.51     0.1464     0.0033     0.0334     0.0186     0.1600     2.2836    29.7600     0.1303     0.1054
   95    1.880   1529.49     0.1554     0.0032     0.0347     0.0188     0.1697     2.0964    30.0800     0.1396     0.1085
   96    1.900   1530.45     0.1621     0.0032     0.0346     0.0190     0.1764     1.9867    30.4000     0.1460     0.1039
   97    1.920   1531.37     0.1630     0.0039     0.0358     0.0192     0.1778     2.4348    30.7200     0.1471     0.1101
   98    1.940   1532.38     0.1573     0.0043     0.0391     0.0194     0.1733     2.8031    31.0400     0.1423     0.1314
   99    1.960   1533.36     0.1857     0.0040     0.0396     0.0196     0.2024     2.2713    31.3600     0.1711     0.1184
  100    1.980   1534.36     0.2023     0.0033     0.0370     0.0198     0.2181     1.6754    31.6800     0.1865     0.0957
  101    2.000   1535.32     0.2136     0.0039     0.0351     0.0200     0.2282     1.8275    32.0000     0.1962     0.0756
  102    2.020   1536.27     0.1960     0.0040     0.0361     0.0202     0.2109     2.0000    32.3200     0.1786     0.0858
  103    2.040   1537.22     0.2088     0.0040     0.0406     0.0204     0.2249     2.0305    32.6400     0.1922     0.0931
  104    2.060   1538.23     0.3113     0.0056     0.0422     0.0206     0.3290     2.0773    32.9600     0.2961     0.0739
  105    2.080   1539.15     0.4237     0.0070     0.0314     0.0208     0.4394     1.7563    33.2800     0.4061     0.0411
  106    2.100   1540.12     0.4314     0.0069     0.0163     0.0210     0.4399     1.5577    33.6000     0.4063    -0.0018
  107    2.120   1541.14     0.3710     0.0055     0.0144     0.0212     0.3773     1.4050    33.9200     0.3434    -0.0183
  108    2.140   1542.06     0.3290     0.0049     0.0145     0.0214     0.3346     1.4099    34.2400     0.3004    -0.0268
  109    2.160   1543.04     0.2384     0.0048     0.0191     0.0216     0.2465     1.8111    34.5600     0.2119    -0.0117
  110    2.180   1544.01     0.1835     0.0041     0.0266     0.0218     0.1937     2.0864    34.8800     0.1588     0.0159
  111    2.200   1544.97     0.1559     0.0034     0.0409     0.0220     0.1712     2.0952    35.2000     0.1360     0.1066
  112    2.220   1545.92     0.1516     0.0029     0.0475     0.0222     0.1709     1.8875    35.5200     0.1354     0.1749
  113    2.240   1546.87     0.1519     0.0022     0.0497     0.0224     0.1730     1.4508    35.8400     0.1371     0.2030
  114    2.260   1547.86     0.1461     0.0028     0.0532     0.0226     0.1692     1.8754    36.1600     0.1330     0.2437
  115    2.280   1548.81     0.1477     0.0029     0.0565     0.0228     0.1705     2.0108    36.4800     0.1340     0.2352
  116    2.300   1549.82     0.1426     0.0034     0.0592     0.0230     0.1673     2.3622    36.8000     0.1305     0.2741
  117    2.320   1550.81     0.1521     0.0038     0.0594     0.0232     0.1772     2.5839    37.1200     0.1401     0.2606
  118    2.340   1551.75     0.1470     0.0042     0.0587     0.0234     0.1720     2.7624    37.4400     0.1345     0.2669
  119    2.360   1552.73     0.1559     0.0046     0.0561     0.0236     0.1796     2.9380    37.7600     0.1418     0.2306
  120    2.380   1553.68     0.1588     0.0051     0.0560     0.0238     0.1827     3.2187    38.0800     0.1446     0.2291
  121    2.400   1554.68     0.1793     0.0048     0.0523     0.0240     0.2019     2.5450    38.4000     0.1635     0.1818
  122    2.420   1564.54     0.1683     0.0051     0.0473     0.0242     0.1888     2.9549    38.7200     0.1500     0.1621
  123    2.440   1597.25     0.1563     0.0055     0.0433     0.0244     0.1751     3.2178    39.0400     0.1361     0.1464
  124    2.460   1629.96     0.1443     0.0059     0.0394     0.0246     0.1614     3.4544    39.3600     0.1221     0.1306
  125    2.480   1642.50     0.1337     0.0062     0.0456     0.0248     0.1517     4.5015    39.6800     0.1120     0.1612
  126    2.500   1643.46     0.1373     0.0060     0.0479     0.0250     0.1577     4.5161    40.0000     0.1177     0.1992
  127    2.520   1644.45     0.1393     0.0059     0.0512     0.0252     0.1604     4.2210    40.3200     0.1201     0.2092
  128    2.540   1645.43     0.1502     0.0055     0.0513     0.0254     0.1718     3.7212    40.6400     0.1312     0.1987
  129    2.560   1646.39     0.1372     0.0050     0.0493     0.0256     0.1581     3.5621    40.9600     0.1172     0.2077
  130    2.580   1647.34     0.1270     0.0050     0.0548     0.0258     0.1488     3.7374    41.2800     0.1075     0.2418
  131    2.600   1648.29     0.1346     0.0051     0.0587     0.0260     0.1590     3.9226    41.6000     0.1174     0.2747
  132    2.620   1649.27     0.1393     0.0050     0.0589     0.0262     0.1639     3.7084    41.9200     0.1220     0.2645
  133    2.640   1650.23     0.1396     0.0048     0.0464     0.0264     0.1605     3.6225    42.2400     0.1183     0.1983
  134    2.660   1651.18     0.1298     0.0050     0.0225     0.0266     0.1436     3.8114    42.5600     0.1011     0.0581
  135    2.680   1652.17     0.1266     0.0049     0.0392     0.0268     0.1381     3.7529    42.8800     0.0952     0.0053
  136    2.700   1653.14     0.1193     0.0049     0.0542     0.0270     0.1406     4.0256    43.2000     0.0974     0.2448
  137    2.720   1654.08     0.1148     0.0048     0.0586     0.0272     0.1389     4.2359    43.5200     0.0954     0.3163
  138    2.740   1655.05     0.1240     0.0040     0.0611     0.0274     0.1495     3.2702    43.8400     0.1056     0.3145
  139    2.760   1656.00     0.1241     0.0040     0.0624     0.0276     0.1501     3.1957    44.1600     0.1059     0.3233
  140    2.780   1657.00     0.1279     0.0032     0.0645     0.0278     0.1542     2.5059    44.4800     0.1097     0.3171
  141    2.800   1657.93     0.1313     0.0035     0.0668     0.0280     0.1588     2.6797    44.8000     0.1140     0.3300
  142    2.820   1658.95     0.1381     0.0034     0.0665     0.0282     0.1664     2.5133    45.1200     0.1213     0.3236
  143    2.840   1659.91     0.1442     0.0037     0.0657     0.0284     0.1711     2.5760    45.4400     0.1257     0.2841
  144    2.860   1660.87     0.1591     0.0041     0.0705     0.0286     0.1883     2.7290    45.7600     0.1426     0.2878
  145    2.880   1661.87     0.1798     0.0046     0.0717     0.0288     0.2103     2.6567    46.0800     0.1642     0.2669
  146    2.900   1662.82     0.1846     0.0047     0.0659     0.0290     0.2140     2.6074    46.4000     0.1676     0.2451
  147    2.920   1663.78     0.1994     0.0051     0.0489     0.0292     0.2230     2.6450    46.7200     0.1763     0.1538
  148    2.940   1664.74     0.1947     0.0053     0.0291     0.0294     0.2085     2.7165    47.0400     0.1615     0.0203
  149    2.960   1665.73     0.1823     0.0049     0.0094     0.0296     0.1895     2.6414    47.3600     0.1421    -0.0899
  150    2.980   1666.69     0.1658     0.0054     0.0230     0.0298     0.1714     3.1918    47.6800     0.1238    -0.1325
  151    3.000   1667.64     0.1563     0.0050     0.0381     0.0300     0.1707     3.2330    48.0000     0.1227     0.0357
  152    3.020   1668.62     0.1616     0.0051     0.0486     0.0302     0.1807     3.2113    48.3200     0.1323     0.1147
  153    3.040   1669.57     0.1727     0.0049     0.0572     0.0304     0.1955     2.8696    48.6400     0.1468     0.1615
  154    3.060   1670.56     0.1771     0.0050     0.0562     0.0306     0.2009     2.8064    48.9600     0.1519     0.1708
  155    3.080   1671.51     0.1774     0.0046     0.0627     0.0308     0.2028     2.6002    49.2800     0.1536     0.1939
  156    3.100   1672.47     0.1724     0.0045     0.0702     0.0310     0.2009     2.5653    49.6000     0.1513     0.2432
  157    3.120   1673.46     0.1659     0.0046     0.0758     0.0312     0.1970     2.7096    49.9200     0.1471     0.2926
  158    3.140   1674.41     0.1601     0.0044     0.0778     0.0314     0.1925     2.7338    50.2400     0.1422     0.3212
  159    3.160   1675.38     0.1609     0.0051     0.0804     0.0316     0.1943     3.2078    50.5600     0.1437     0.3327
  160    3.180   1676.38     0.1552     0.0046     0.0844     0.0318     0.1903     3.0068    50.8800     0.1394     0.3703
  161    3.200   1677.33     0.1508     0.0049     0.0854     0.0320     0.1865     3.1436    51.2000     0.1353     0.3918
  162    3.220   1678.29     0.1563     0.0050     0.0873     0.0322     0.1927     3.2589    51.5200     0.1411     0.3858
  163    3.240   1679.24     0.1544     0.0048     0.0897     0.0324     0.1917     3.0906    51.8400     0.1399     0.4032
  164    3.260   1680.19     0.1505     0.0048     0.0917     0.0326     0.1889     3.1446    52.1600     0.1367     0.4289
  165    3.280   1681.15     0.1541     0.0053     0.0934     0.0328     0.1929     3.5199    52.4800     0.1405     0.4254
  166    3.300   1682.15     0.1574     0.0054     0.0960     0.0330     0.1974     3.4975    52.8000     0.1446     0.4307
  167    3.320   1683.10     0.1681     0.0051     0.0978     0.0332     0.2090     3.1588    53.1200     0.1559     0.4122
  168    3.340   1684.07     0.1855     0.0049     0.0946     0.0334     0.2259     2.7270    53.4400     0.1725     0.3645
  169    3.360   1685.02     0.1956     0.0046     0.0882     0.0336     0.2339     2.3824    53.7600     0.1801     0.3203
  170    3.380   1686.00     0.2011     0.0053     0.0860     0.0338     0.2367     2.6410    54.0800     0.1827     0.2799
  171    3.400   1686.98     0.1886     0.0061     0.0900     0.0340     0.2254     3.2022    54.4000     0.1710     0.3132
  172    3.420   1687.95     0.1919     0.0059     0.0946     0.0342     0.2317     3.1454    54.7200     0.1769     0.3412
  173    3.440   1688.93     0.2013     0.0062     0.0868     0.0344     0.2384     3.1094    55.0400     0.1833     0.2941
  174    3.460   1689.90     0.2009     0.0068     0.0745     0.0346     0.2354     3.3627    55.3600     0.1801     0.2653
  175    3.480   1690.86     0.2063     0.0068     0.0765     0.0348     0.2364     3.2390    55.6800     0.1807     0.2029
  176    3.500   1691.81     0.1994     0.0066     0.0789     0.0350     0.2329     3.3468    56.0000     0.1769     0.2521
  177    3.520   1692.81     0.2160     0.0066     0.0821     0.0352     0.2499     3.1342    56.3200     0.1936     0.2346
  178    3.540   1693.76     0.2166     0.0067     0.0833     0.0354     0.2505     3.0976    56.6400     0.1939     0.2342
  179    3.560   1694.72     0.2031     0.0061     0.0879     0.0356     0.2395     2.9429    56.9600     0.1825     0.2792
  180    3.580   1695.70     0.2028     0.0066     0.0882     0.0358     0.2403     3.2404    57.2800     0.1830     0.2923
  181    3.600   1696.64     0.1999     0.0064     0.0866     0.0360     0.2367     3.1604    57.6000     0.1791     0.2883
  182    3.620   1697.60     0.1909     0.0064     0.0777     0.0362     0.2248     3.3546    57.9200     0.1669     0.2669
  183    3.640   1698.58     0.1827     0.0062     0.0793     0.0364     0.2151     3.3273    58.2400     0.1568     0.2593
  184    3.660   1699.55     0.1833     0.0059     0.0783     0.0366     0.2163     3.2247    58.5600     0.1577     0.2665
  185    3.680   1700.52     0.1788     0.0060     0.0853     0.0368     0.2130     3.3424    58.8800     0.1542     0.2903
  186    3.700   1701.47     0.1823     0.0059     0.0904     0.0370     0.2193     3.2734    59.2000     0.1601     0.3203
  187    3.720   1702.44     0.1819     0.0055     0.0948     0.0372     0.2211     2.9708    59.5200     0.1616     0.3477
  188    3.740   1703.40     0.1792     0.0053     0.0901     0.0374     0.2183     2.9581    59.8400     0.1584     0.3505
  189    3.760   1704.40     0.1801     0.0056     0.0921     0.0376     0.2181     3.1232    60.1600     0.1579     0.3354
  190    3.780   1705.35     0.1848     0.0061     0.0955     0.0378     0.2246     3.2838    60.4800     0.1642     0.3473
  191    3.800   1706.32     0.1777     0.0053     0.0939     0.0380     0.2179     2.9651    60.8000     0.1571     0.3681
  192    3.820   1707.29     0.1791     0.0058     0.0912     0.0382     0.2175     3.2689    61.1200     0.1564     0.3407
  193    3.840   1708.23     0.1798     0.0058     0.0873     0.0384     0.2158     3.1532    61.4400     0.1543     0.3054
  194    3.860   1709.20     0.1694     0.0064     0.0976     0.0386     0.2091     3.7224    61.7600     0.1473     0.3788
  195    3.880   1710.21     0.1668     0.0065     0.1008     0.0388     0.2095     3.9224    62.0800     0.1474     0.4253
  196    3.900   1711.18     0.1705     0.0060     0.0937     0.0390     0.2106     3.6430    62.4000     0.1482     0.3814
  197    3.920   1712.12     0.1715     0.0058     0.0975     0.0392     0.2117     3.4000    62.7200     0.1490     0.3792
  198    3.940   1713.09     0.1798     0.0061     0.0983     0.0394     0.2216     3.4933    63.0400     0.1586     0.3799
  199    3.960   1714.08     0.1774     0.0060     0.0974     0.0396     0.2182     3.2347    63.3600     0.1548     0.3721
  200    3.980   1715.01     0.1731     0.0059     0.1024     0.0398     0.2171     3.4700    63.6800     0.1535     0.4240
  201    4.000   1715.99     0.1781     0.0057     0.1008     0.0400     0.2219     3.2529    64.0000     0.1579     0.4080
  202    4.020   1716.95     0.1792     0.0056     0.0985     0.0402     0.2183     3.1168    64.3200     0.1540     0.3448
  203    4.040   1717.88     0.1771     0.0062     0.1015     0.0404     0.2193     3.4795    64.6400     0.1547     0.3894
  204    4.060   1718.88     0.1737     0.0087     0.1028     0.0406     0.2166     4.9745    64.9600     0.1517     0.4062
  205    4.080   1719.83     0.1759     0.0112     0.0993     0.0408     0.2196     6.4696    65.2800     0.1544     0.4102
  206    4.100   1720.78     0.1711     0.0107     0.0952     0.0410     0.2111     6.2668    65.6000     0.1455     0.3726
  207    4.120   1721.74     0.1720     0.0112     0.0977     0.0412     0.2121     6.4841    65.9200     0.1462     0.3705
  208    4.140   1722.74     0.1693     0.0112     0.1004     0.0414     0.2105     6.5746    66.2400     0.1442     0.3931
  209    4.160   4240.17     0.1863     0.0106     0.0668     0.0416     0.2192     6.5287    66.5600     0.1527     0.2722
  210    4.180   7874.09     0.2216     0.0101     0.0331     0.0418     0.2404     6.0628    66.8800     0.1735     0.0362
  211    4.200   9342.45     0.2276     0.0098     0.0458     0.0420     0.2443     4.2597    67.2000     0.1771    -0.0130
  212    4.220   9343.39     0.2021     0.0093     0.0602     0.0422     0.2255     4.5103    67.5200     0.1580     0.0853
  213    4.240   9344.26     0.1899     0.0087     0.0721     0.0424     0.2184     4.4620    67.8400     0.1506     0.1704
  214    4.260   9345.19     0.1815     0.0082     0.0836     0.0426     0.2151     4.4137    68.1600     0.1470     0.2554
  215    4.280   9346.09     0.1801     0.0082     0.0905     0.0428     0.2172     4.5251    68.4800     0.1487     0.3050
  216    4.300   9347.03     0.1735     0.0075     0.0957     0.0430     0.2132     4.3055    68.8000     0.1444     0.3568
  217    4.320   9348.04     0.1771     0.0073     0.0955     0.0432     0.2181     4.1203    69.1200     0.1489     0.3651
  218    4.340   9362.27     0.1765     0.0074     0.0895     0.0434     0.2149     4.1789    69.4400     0.1455     0.3293
  219    4.360   9376.49     0.1759     0.0075     0.0834     0.0436     0.2118     4.2628    69.7600     0.1420     0.2935
  220    4.380   9388.56     0.1710     0.0070     0.1209     0.0438     0.2102     3.9694    70.0800     0.1401     0.3524
  221    4.400   9389.51     0.1620     0.0073     0.1256     0.0440     0.2142     4.5408    70.4000     0.1438     0.5572
  222    4.420   9390.47     0.1648     0.0071     0.1256     0.0442     0.2185     4.2865    70.7200     0.1478     0.5659
  223    4.440   9391.44     0.1569     0.0066     0.1276     0.0444     0.2111     4.1333    71.0400     0.1401     0.6045
  224    4.460   9392.41     0.1593     0.0066     0.1264     0.0446     0.2128     4.1582    71.3600     0.1414     0.5849
  225    4.480   9393.40     0.1578     0.0070     0.1215     0.0448     0.2087     4.4644    71.6800     0.1371     0.5571
  226    4.500   9394.36     0.1589     0.0070     0.1230     0.0450     0.2109     4.3720    72.0000     0.1389     0.5667
  227    4.520   9395.35     0.1520     0.0069     0.1243     0.0452     0.2042     4.6111    72.3200     0.1319     0.6010
  228    4.540   9396.29     0.1524     0.0071     0.1234     0.0454     0.2047     4.6702    72.6400     0.1320     0.5991
  229    4.560   9397.28     0.1606     0.0073     0.1185     0.0456     0.2106     4.5556    72.9600     0.1377     0.5339
  230    4.580   9398.23     0.1582     0.0070     0.1207     0.0458     0.2088     4.4198    73.2800     0.1355     0.5514
  231    4.600   9399.19     0.1571     0.0064     0.1227     0.0460     0.2082     4.1374    73.6000     0.1346     0.5623
  232    4.620   9400.15     0.1590     0.0068     0.1215     0.0462     0.2099     4.2674    73.9200     0.1360     0.5515
  233    4.640   9401.11     0.1613     0.0063     0.1225     0.0464     0.2126     3.9522    74.2400     0.1384     0.5479
  234    4.660   9402.09     0.1635     0.0069     0.1258     0.0466     0.2155     4.2250    74.5600     0.1409     0.5481
  235    4.680   9403.09     0.1623     0.0073     0.1274     0.0468     0.2161     4.5162    74.8800     0.1412     0.5747
  236    4.700   9404.04     0.1668     0.0071     0.1205     0.0470     0.2182     4.2837    75.2000     0.1430     0.5279
  237    4.720   9404.99     0.1671     0.0070     0.1223     0.0472     0.2177     4.1512    75.5200     0.1422     0.5159
  238    4.740   9405.95     0.1627     0.0072     0.1259     0.0474     0.2149     4.3793    75.8400     0.1390     0.5521
  239    4.760   9406.95     0.1620     0.0072     0.1292     0.0476     0.2163     4.3370    76.1600     0.1401     0.5830
  240    4.780   9407.90     0.1669     0.0074     0.1317     0.0478     0.2214     4.5382    76.4800     0.1449     0.5651
  241    4.800   9408.86     0.1620     0.0069     0.1370     0.0480     0.2190     4.2761    76.8000     0.1422     0.6172
  242    4.820   9409.86     0.1627     0.0070     0.1376     0.0482     0.2208     4.2413    77.1200     0.1437     0.6277
  243    4.840   9410.79     0.1600     0.0073     0.1358     0.0484     0.2173     4.5141    77.4400     0.1399     0.6303
  244    4.860   9411.72     0.1640     0.0069     0.1354     0.0486     0.2208     4.2118    77.7600     0.1430     0.6051
  245    4.880   9412.60     0.1607     0.0065     0.1358     0.0488     0.2178     4.0049    78.0800     0.1397     0.6229
  246    4.900   9413.56     0.1660     0.0072     0.1310     0.0490     0.2221     4.4409    78.4000     0.1437     0.5879
  247    4.920   9414.52     0.1620     0.0070     0.1296     0.0492     0.2161     4.2772    78.7200     0.1374     0.5796
  248    4.940   9415.50     0.1660     0.0070     0.1299     0.0494     0.2203     4.2397    79.0400     0.1413     0.5650
  249    4.960   9416.45     0.1635     0.0075     0.1227     0.0496     0.2166     4.5877    79.3600     0.1372     0.5594
  250    4.980   9417.42     0.1631     0.0071     0.1156     0.0498     0.2118     4.2816    79.6800     0.1321     0.5013
  251    5.000   9418.37     0.1676     0.0075     0.1183     0.0500     0.2175     4.3717    80.0000     0.1375     0.5001
  252    5.020   9419.33     0.1724     0.0075     0.1180     0.0502     0.2220     4.4124    80.3200     0.1417     0.4789
  253    5.040   9420.28     0.1672     0.0078     0.1217     0.0504     0.2173     4.6188    80.6400     0.1366     0.5037
  254    5.060   9421.28     0.1672     0.0077     0.1293     0.0506     0.2207     4.5621    80.9600     0.1397     0.5497
  255    5.080   9422.27     0.1625     0.0077     0.1269     0.0508     0.2165     4.7736    81.2800     0.1353     0.5755
  256    5.100   9423.21     0.1636     0.0077     0.1279     0.0510     0.2169     4.6653    81.6000     0.1353     0.5610
  257    5.120   9424.09     0.1602     0.0076     0.1312     0.0512     0.2147     4.7003    81.9200     0.1328     0.5904
  258    5.140   9424.85     0.1592     0.0072     0.1353     0.0514     0.2157     4.5120    82.2400     0.1334     0.6230
  259    5.160   9425.64     0.1650     0.0070     0.1391     0.0516     0.2228     4.3229    82.5600     0.1402     0.6129
  260    5.180   9426.58     0.1621     0.0073     0.1369     0.0518     0.2192     4.4795    82.8800     0.1363     0.6171
  261    5.200   9427.53     0.1651     0.0072     0.1337     0.0520     0.2217     4.3341    83.2000     0.1385     0.5977
  262    5.220   9428.50     0.1599     0.0072     0.1348     0.0522     0.2160     4.5086    83.5200     0.1325     0.6145
  263    5.240   9429.48     0.1587     0.0074     0.1382     0.0524     0.2154     4.6712    83.8400     0.1316     0.6274
  264    5.260   9430.46     0.1653     0.0076     0.1357     0.0526     0.2233     4.6768    84.1600     0.1391     0.6148
  265    5.280   9431.42     0.1633     0.0077     0.1329     0.0528     0.2197     4.6708    84.4800     0.1352     0.6020
  266    5.300   9432.41     0.1708     0.0073     0.1304     0.0530     0.2242     4.3140    84.8000     0.1394     0.5313
  267    5.320   9433.42     0.1699     0.0073     0.1470     0.0532     0.2300     4.2903    85.1200     0.1449     0.6194
  268    5.340   9434.36     0.1647     0.0078     0.1397     0.0534     0.2257     4.7802    85.4400     0.1403     0.6546
  269    5.360   9435.37     0.1670     0.0078     0.1400     0.0536     0.2241     4.7817    85.7600     0.1383     0.5940
  270    5.380   9436.33     0.1655     0.0076     0.1429     0.0538     0.2255     4.6584    86.0800     0.1394     0.6377
  271    5.400   9437.27     0.1635     0.0081     0.1435     0.0540     0.2235     4.9603    86.4000     0.1371     0.6483
  272    5.420   9438.21     0.1686     0.0080     0.1407     0.0542     0.2287     4.7493    86.7200     0.1419     0.6255
  273    5.440   9439.14     0.1719     0.0077     0.1409     0.0544     0.2298     4.4152    87.0400     0.1427     0.5846
  274    5.460   9440.10     0.1706     0.0079     0.1432     0.0546     0.2310     4.6104    87.3600     0.1437     0.6210
  275    5.480   9441.10     0.1670     0.0077     0.1415     0.0548     0.2270     4.6311    87.6800     0.1393     0.6321
  276    5.500   9442.05     0.1660     0.0082     0.1405     0.0550     0.2249     4.9043    88.0000     0.1369     0.6238
  277    5.520   9443.05     0.1629     0.0079     0.1156     0.0552     0.2176     4.7843    88.3200     0.1293     0.5788
  278    5.540   9444.01     0.1685     0.0078     0.1106     0.0554     0.2124     4.6767    88.6400     0.1237     0.3974
  279    5.560   9444.96     0.1543     0.0078     0.1187     0.0556     0.2036     4.9668    88.9600     0.1146     0.5393
  280    5.580   9445.94     0.1611     0.0082     0.1200     0.0558     0.2125     5.1463    89.2800     0.1232     0.5401
  281    5.600   9446.88     0.1629     0.0077     0.1221     0.0560     0.2136     4.6907    89.6000     0.1240     0.5216
  282    5.620   9447.87     0.1663     0.0078     0.1190     0.0562     0.2183     4.6943    89.9200     0.1284     0.5256
  283    5.640   9448.82     0.1653     0.0080     0.1136     0.0564     0.2131     4.7768    90.2400     0.1229     0.4674
  284    5.660   9449.82     0.1655     0.0078     0.1201     0.0566     0.2151     4.7163    90.5600     0.1246     0.4939
  285    5.680   9450.78     0.1575     0.0080     0.1287     0.0568     0.2102     4.9471    90.8800     0.1193     0.5751
  286    5.700   9451.77     0.1521     0.0076     0.1356     0.0570     0.2081     5.0834    91.2000     0.1169     0.6534
  287    5.720   9452.73     0.1505     0.0074     0.1420     0.0572     0.2093     4.8455    91.5200     0.1178     0.7034
  288    5.740   9453.68     0.1444     0.0079     0.1447     0.0574     0.2049     5.3896    91.8400     0.1131     0.7665
  289    5.760   9454.61     0.1442     0.0073     0.1474     0.0576     0.2056     5.0835    92.1600     0.1134     0.7812
  290    5.780   9455.59     0.1492     0.0073     0.1519     0.0578     0.2124     4.8717    92.4800     0.1199     0.7733
  291    5.800   9456.61     0.1520     0.0073     0.1542     0.0580     0.2164     4.8036    92.8000     0.1236     0.7709
  292    5.820   9457.57     0.1551     0.0072     0.1549     0.0582     0.2204     4.6763    93.1200     0.1273     0.7637
  293    5.840   9458.55     0.1625     0.0075     0.1458     0.0584     0.2238     4.6648    93.4400     0.1303     0.6716
  294    5.860   9459.53     0.1688     0.0080     0.1447     0.0586     0.2288     4.7789    93.7600     0.1350     0.6234
  295    5.880   9460.52     0.1746     0.0085     0.1503     0.0588     0.2377     4.8930    94.0800     0.1436     0.6365
  296    5.900   9461.44     0.1723     0.0089     0.1432     0.0590     0.2347     5.1914    94.4000     0.1403     0.6385
  297    5.920   9462.40     0.1795     0.0089     0.1487     0.0592     0.2419     4.9677    94.7200     0.1471     0.6069
  298    5.940   9464.65     0.1800     0.0092     0.1532     0.0594     0.2436     5.1403    95.0400     0.1485     0.6189
  299    5.960   9468.28     0.1787     0.0096     0.1584     0.0596     0.2444     5.2955    95.3600     0.1491     0.6505
  300    5.980   9471.90     0.1773     0.0093     0.1637     0.0598     0.2453     5.1729    95.6800     0.1496     0.6822
  301    6.000   9473.98     0.1784     0.0091     0.1649     0.0600     0.2476     5.1670    96.0000     0.1516     0.6899
  302    6.020   9474.96     0.1814     0.0094     0.1637     0.0602     0.2500     5.2604    96.3200     0.1536     0.6714
  303    6.040   9500.99     0.1833     0.0093     0.1604     0.0604     0.2512     5.2020    96.6400     0.1546     0.6576
  304    6.060   9548.57     0.1916     0.0089     0.1565     0.0606     0.2579     4.9798    96.9600     0.1609     0.6070
  305    6.080   9589.53     0.1987     0.0093     0.1537     0.0608     0.2635     5.0142    97.2800     0.1662     0.5624
  306    6.100   9590.17     0.1980     0.0088     0.1595     0.0610     0.2637     4.4206    97.6000     0.1661     0.5754
  307    6.120   9590.83     0.1924     0.0084     0.1654     0.0612     0.2612     4.2891    97.9200     0.1633     0.6288
  308    6.140   9591.50     0.1958     0.0088     0.1701     0.0614     0.2663     4.5101    98.2400     0.1681     0.6337
  309    6.160   9592.17     0.1919     0.0088     0.1747     0.0616     0.2647     4.6449    98.5600     0.1662     0.6723
  310    6.180   9592.84     0.1946     0.0084     0.1757     0.0618     0.2688     4.3106    98.8800     0.1699     0.6758
  311    6.200   9593.57     0.2035     0.0078     0.1722     0.0620     0.2759     3.9198    99.2000     0.1767     0.6252
  312    6.220   9594.24     0.2128     0.0075     0.1710     0.0622     0.2849     3.6505    99.5200     0.1854     0.5914
  313    6.240   9594.91     0.2087     0.0066     0.1713     0.0624     0.2778     3.1463    99.8400     0.1780     0.5736
  314    6.260   9595.58     0.2152     0.0057     0.1728     0.0626     0.2890     2.6162   100.1600     0.1889     0.6004
  315    6.280   9596.22     0.2270     0.0048     0.1611     0.0628     0.2964     2.1038   100.4800     0.1959     0.5230
  316    6.300   9596.91     0.2369     0.0061     0.1699     0.0630     0.3072     2.7008   100.8000     0.2064     0.5054
  317    6.320   9597.54     0.2457     0.0062     0.1684     0.0632     0.3176     2.5301   101.1200     0.2165     0.4995
  318    6.340   9605.33     0.2500     0.0065     0.1617     0.0634     0.3188     2.6288   101.4400     0.2173     0.4617
  319    6.360   9623.45     0.2523     0.0059     0.1556     0.0636     0.3185     2.3511   101.7600     0.2167     0.4340
  320    6.380   9641.58     0.2545     0.0060     0.1640     0.0638     0.3182     2.4118   102.0800     0.2161     0.4063
  321    6.400   9648.50     0.2055     0.0054     0.1718     0.0640     0.2775     2.7128   102.4000     0.1751     0.6170
  322    6.420   9649.50     0.2424     0.0050     0.1791     0.0642     0.3167     2.0567   102.7200     0.2140     0.5264
  323    6.440   9650.52     0.2360     0.0045     0.1854     0.0644     0.3129     1.8851   103.0400     0.2098     0.5650
  324    6.460   9651.47     0.2406     0.0046     0.1907     0.0646     0.3201     1.9096   103.3600     0.2168     0.5753
  325    6.480   9652.50     0.2505     0.0044     0.1856     0.0648     0.3290     1.7516   103.6800     0.2254     0.5425
  326    6.500   9653.46     0.2533     0.0044     0.1879     0.0650     0.3313     1.7440   104.0000     0.2273     0.5310
  327    6.520   9654.46     0.2655     0.0048     0.1881     0.0652     0.3458     1.8326   104.3200     0.2415     0.5213
  328    6.540   9655.41     0.2689     0.0047     0.1847     0.0654     0.3470     1.7654   104.6400     0.2423     0.4975
  329    6.560   9656.36     0.2697     0.0050     0.1831     0.0656     0.3469     1.8461   104.9600     0.2419     0.4889
  330    6.580   9657.33     0.2654     0.0051     0.1779     0.0658     0.3402     1.9047   105.2800     0.2349     0.4779
  331    6.600   9658.33     0.2640     0.0051     0.1783     0.0660     0.3384     1.9214   105.6000     0.2328     0.4778
  332    6.620   9659.29     0.2656     0.0050     0.1830     0.0662     0.3416     1.8965   105.9200     0.2357     0.4874
  333    6.640   9660.29     0.2661     0.0051     0.1847     0.0664     0.3438     1.9381   106.2400     0.2375     0.4994
  334    6.660   9661.28     0.2666     0.0052     0.1852     0.0666     0.3440     1.9400   106.5600     0.2374     0.4957
  335    6.680   9662.25     0.2667     0.0048     0.1934     0.0668     0.3466     1.8043   106.8800     0.2398     0.5151
  336    6.700   9663.20     0.2674     0.0050     0.1944     0.0670     0.3497     1.8666   107.2000     0.2425     0.5311
  337    6.720   9664.18     0.2691     0.0051     0.1878     0.0672     0.3484     1.9126   107.5200     0.2409     0.5051
  338    6.740   9665.16     0.2715     0.0048     0.1910     0.0674     0.3509     1.7874   107.8400     0.2430     0.5002
  339    6.760   9666.14     0.2709     0.0049     0.1944     0.0676     0.3528     1.8387   108.1600     0.2446     0.5206
  340    6.780   9667.09     0.2731     0.0051     0.1944     0.0678     0.3547     1.8891   108.4800     0.2463     0.5143
  341    6.800   9668.04     0.2778     0.0053     0.1895     0.0680     0.3583     1.9073   108.8000     0.2495     0.4957
  342    6.820   9669.04     0.2744     0.0048     0.1884     0.0682     0.3540     1.7353   109.1200     0.2449     0.4956
  343    6.840   9670.00     0.2756     0.0050     0.1890     0.0684     0.3549     1.8248   109.4400     0.2455     0.4910
  344    6.860   9671.00     0.2713     0.0054     0.1947     0.0686     0.3521     1.9557   109.7600     0.2423     0.5105
  345    6.880   9671.98     0.2756     0.0057     0.1985     0.0688     0.3585     2.0866   110.0800     0.2484     0.5175
  346    6.900   9672.93     0.2767     0.0057     0.1964     0.0690     0.3599     2.0578   110.4000     0.2495     0.5167
  347    6.920   9673.94     0.2874     0.0060     0.1870     0.0692     0.3673     2.0948   110.7200     0.2565     0.4714
  348    6.940   9675.49     0.2897     0.0065     0.1835     0.0694     0.3671     2.2425   111.0400     0.2561     0.4489
  349    6.960   9677.66     0.2868     0.0059     0.1810     0.0696     0.3632     2.0206   111.3600     0.2518     0.4456
  350    6.980   9679.83     0.2839     0.0064     0.1784     0.0698     0.3592     2.1870   111.6800     0.2475     0.4423
  351    7.000   9681.39     0.2806     0.0061     0.1837     0.0700     0.3572     2.1535   112.0000     0.2452     0.4578
  352    7.020   9682.35     0.2767     0.0062     0.1840     0.0702     0.3546     2.2472   112.3200     0.2423     0.4757
  353    7.040   9683.35     0.2718     0.0057     0.1918     0.0704     0.3492     2.0980   112.6400     0.2366     0.4820
  354    7.060   9684.30     0.2757     0.0055     0.2034     0.0706     0.3604     2.0121   112.9600     0.2474     0.5296
  355    7.080   9685.25     0.2760     0.0056     0.1973     0.0708     0.3603     2.0070   113.2800     0.2470     0.5254
  356    7.100   9686.24     0.2789     0.0058     0.1959     0.0710     0.3608     2.0866   113.6000     0.2472     0.5016
  357    7.120   9687.21     0.2757     0.0058     0.1941     0.0712     0.3577     2.1007   113.9200     0.2438     0.5087
  358    7.140   9688.21     0.2776     0.0055     0.1896     0.0714     0.3581     1.9790   114.2400     0.2438     0.4930
  359    7.160   9689.21     0.2811     0.0056     0.1968     0.0716     0.3627     2.0013   114.5600     0.2481     0.4937
  360    7.180   9690.16     0.2782     0.0053     0.2034     0.0718     0.3627     1.9042   114.8800     0.2478     0.5219
  361    7.200   9691.12     0.2789     0.0058     0.2082     0.0720     0.3651     2.0616   115.2000     0.2499     0.5326
  362    7.220   9692.07     0.2840     0.0059     0.1984     0.0722     0.3680     2.0970   115.5200     0.2524     0.5058
  363    7.240   9693.03     0.2899     0.0065     0.1978     0.0724     0.3732     2.2608   115.8400     0.2574     0.4895
  364    7.260   9693.97     0.2965     0.0068     0.1950     0.0726     0.3793     2.3054   116.1600     0.2632     0.4731
  365    7.280   9694.98     0.3032     0.0068     0.1867     0.0728     0.3823     2.2658   116.4800     0.2658     0.4346
  366    7.300   9695.98     0.2900     0.0067     0.1956     0.0730     0.3724     2.2963   116.8000     0.2556     0.4827
  367    7.320   9696.98     0.2939     0.0062     0.1979     0.0732     0.3773     2.1129   117.1200     0.2602     0.4826
  368    7.340   9697.93     0.2960     0.0063     0.2010     0.0734     0.3787     2.1323   117.4400     0.2613     0.4732
  369    7.360   9698.88     0.2902     0.0063     0.2037     0.0736     0.3756     2.1654   117.7600     0.2578     0.5028
  370    7.380   9699.89     0.2932     0.0067     0.2010     0.0738     0.3785     2.2843   118.0800     0.2605     0.4968
  371    7.400   9700.84     0.2974     0.0062     0.1939     0.0740     0.3794     2.0902   118.4000     0.2610     0.4643
  372    7.420   9701.83     0.2997     0.0062     0.1961     0.0742     0.3818     2.0802   118.7200     0.2631     0.4607
  373    7.440   9702.80     0.3006     0.0060     0.1984     0.0744     0.3831     1.9877   119.0400     0.2641     0.4620
  374    7.460   9703.78     0.2928     0.0060     0.2040     0.0746     0.3780     2.0612   119.3600     0.2586     0.4958
  375    7.480   9704.78     0.2902     0.0058     0.2043     0.0748     0.3761     1.9856   119.6800     0.2564     0.5060
  376    7.500   9705.73     0.2939     0.0053     0.2050     0.0750     0.3799     1.7942   120.0000     0.2599     0.4995
  377    7.520   9706.69     0.2910     0.0051     0.2038     0.0752     0.3767     1.7332   120.3200     0.2563     0.5018
  378    7.540   9707.66     0.2944     0.0060     0.2033     0.0754     0.3799     2.0303   120.6400     0.2593     0.4940
  379    7.560   9708.63     0.2903     0.0057     0.2015     0.0756     0.3755     1.9445   120.9600     0.2545     0.4996
  380    7.580   9709.62     0.2869     0.0056     0.2052     0.0758     0.3720     1.9424   121.2800     0.2507     0.5061
  381    7.600   9710.58     0.2818     0.0057     0.2004     0.0760     0.3659     2.0184   121.6000     0.2443     0.5085
  382    7.620   9711.57     0.2811     0.0058     0.1991     0.0762     0.3649     2.0829   121.9200     0.2430     0.5078
  383    7.640   9712.54     0.2716     0.0053     0.2049     0.0764     0.3568     1.9353   122.2400     0.2346     0.5400
  384    7.660   9713.53     0.2695     0.0052     0.2115     0.0766     0.3565     1.9452   122.5600     0.2340     0.5584
  385    7.680   9714.49     0.2722     0.0050     0.2132     0.0768     0.3618     1.8257   122.8800     0.2389     0.5713
  386    7.700   9715.48     0.2720     0.0052     0.2111     0.0770     0.3615     1.9241   123.2000     0.2383     0.5710
  387    7.720   9716.45     0.2792     0.0053     0.2120     0.0772     0.3683     1.9112   123.5200     0.2448     0.5517
  388    7.740   9717.41     0.2777     0.0053     0.2089     0.0774     0.3661     1.9069   123.8400     0.2423     0.5489
  389    7.760   9718.41     0.2737     0.0054     0.2108     0.0776     0.3623     1.9811   124.1600     0.2382     0.5603
  390    7.780   9719.41     0.2669     0.0050     0.2150     0.0778     0.3569     1.8421   124.4800     0.2324     0.5871
  391    7.800   9720.36     0.2669     0.0048     0.2181     0.0780     0.3576     1.7921   124.8000     0.2328     0.5919
  392    7.820   9721.39     0.2687     0.0048     0.2210     0.0782     0.3619     1.8025   125.1200     0.2368     0.6070
  393    7.840   9722.35     0.2712     0.0052     0.2179     0.0784     0.3629     1.9163   125.4400     0.2375     0.5899
  394    7.860   9723.34     0.2739     0.0053     0.2125     0.0786     0.3644     1.9500   125.7600     0.2386     0.5731
  395    7.880   9724.30     0.2741     0.0049     0.2062     0.0788     0.3615     1.8041   126.0800     0.2355     0.5494
  396    7.900   9725.26     0.2771     0.0049     0.2164     0.0790     0.3658     1.7917   126.4000     0.2394     0.5522
  397    7.920   9726.24     0.2798     0.0048     0.2138     0.0792     0.3699     1.7040   126.7200     0.2431     0.5564
  398    7.940   9727.21     0.2809     0.0047     0.2284     0.0794     0.3747     1.6666   127.0400     0.2477     0.5814
  399    7.960   9728.16     0.2788     0.0052     0.2271     0.0796     0.3738     1.8437   127.3600     0.2464     0.5944
  400    7.980   9729.13     0.2817     0.0053     0.2246     0.0798     0.3778     1.8930   127.6800     0.2501     0.5963
  401    8.000   9730.11     0.2903     0.0054     0.2130     0.0800     0.3810     1.8496   128.0000     0.2530     0.5373
  402    8.020   9731.12     0.2957     0.0049     0.2006     0.0802     0.3823     1.6573   128.3200     0.2540     0.4960
  403    8.040   9732.07     0.2911     0.0056     0.2047     0.0804     0.3760     1.9038   128.6400     0.2473     0.4918
  404    8.060   9733.06     0.2846     0.0052     0.2116     0.0806     0.3720     1.8180   128.9600     0.2430     0.5248
  405    8.080   9734.01     0.2827     0.0054     0.2036     0.0808     0.3662     1.9097   129.2800     0.2370     0.4987
  406    8.100   9735.00     0.2804     0.0059     0.2131     0.0810     0.3699     2.1095   129.6000     0.2403     0.5493
  407    8.120   9735.96     0.2767     0.0056     0.2030     0.0812     0.3648     2.0356   129.9200     0.2349     0.5472
  408    8.140   9736.96     0.2831     0.0055     0.2043     0.0814     0.3675     1.9582   130.2400     0.2372     0.5040
  409    8.160   9737.91     0.2860     0.0056     0.2177     0.0816     0.3762     1.9831   130.5600     0.2457     0.5425
  410    8.180   9738.91     0.2817     0.0058     0.2230     0.0818     0.3752     2.0302   130.8800     0.2443     0.5758
  411    8.200   9739.87     0.2841     0.0057     0.2235     0.0820     0.3775     1.9812   131.2000     0.2463     0.5702
  412    8.220   9740.87     0.2780     0.0055     0.2237     0.0822     0.3713     1.9755   131.5200     0.2397     0.5836
  413    8.240   9741.82     0.2759     0.0055     0.2322     0.0824     0.3725     1.9858   131.8400     0.2407     0.6134
  414    8.260   9742.83     0.2778     0.0056     0.2272     0.0826     0.3741     1.9961   132.1600     0.2420     0.6067
  415    8.280   9743.80     0.2802     0.0056     0.2288     0.0828     0.3749     2.0068   132.4800     0.2425     0.5890
  416    8.300   9744.78     0.2791     0.0053     0.2401     0.0830     0.3790     1.8815   132.8000     0.2462     0.6288
  417    8.320   9745.75     0.2837     0.0052     0.2316     0.0832     0.3827     1.8454   133.1200     0.2496     0.6109
  418    8.340   9758.89     0.2898     0.0051     0.2244     0.0834     0.3852     1.8066   133.4400     0.2517     0.5707
  419    8.360   9774.45     0.2960     0.0052     0.2172     0.0836     0.3883     1.8184   133.7600     0.2545     0.5353
  420    8.380   9782.90     0.2990     0.0056     0.2210     0.0838     0.3917     1.8598   134.0800     0.2577     0.5314
  421    8.400   9783.90     0.3041     0.0054     0.2199     0.0840     0.3956     1.7910   134.4000     0.2612     0.5128
  422    8.420   9784.90     0.3036     0.0050     0.2223     0.0842     0.3966     1.6497   134.7200     0.2619     0.5242
  423    8.440   9785.85     0.3034     0.0053     0.2225     0.0844     0.3973     1.7679   135.0400     0.2622     0.5303
  424    8.460   9786.81     0.3022     0.0053     0.2189     0.0846     0.3940     1.7635   135.3600     0.2586     0.5178
  425    8.480   9787.80     0.3027     0.0052     0.2236     0.0848     0.3958     1.7164   135.6800     0.2601     0.5267
  426    8.500   9788.78     0.3040     0.0055     0.2231     0.0850     0.3984     1.8145   136.0000     0.2624     0.5329
  427    8.520   9789.74     0.3104     0.0058     0.2222     0.0852     0.4035     1.8857   136.3200     0.2672     0.5107
  428    8.540   9790.71     0.3112     0.0062     0.2257     0.0854     0.4053     2.0098   136.6400     0.2686     0.5160
  429    8.560   9791.69     0.3113     0.0057     0.2252     0.0856     0.4061     1.8495   136.9600     0.2691     0.5202
  430    8.580   9792.60     0.3124     0.0058     0.2230     0.0858     0.4064     1.8432   137.2800     0.2691     0.5131
  431    8.600   9793.59     0.3104     0.0058     0.2170     0.0860     0.4024     1.8683   137.6000     0.2648     0.5028
  432    8.620   9794.58     0.3110     0.0056     0.2222     0.0862     0.4035     1.7876   137.9200     0.2656     0.5049
  433    8.640   9795.54     0.3079     0.0055     0.2207     0.0864     0.4004     1.7850   138.2400     0.2622     0.5109
  434    8.660   9796.55     0.3081     0.0054     0.2212     0.0866     0.4010     1.7662   138.5600     0.2625     0.5127
  435    8.680   9797.51     0.3145     0.0058     0.2183     0.0868     0.4058     1.8655   138.8800     0.2669     0.4888
  436    8.700   9798.51     0.3093     0.0057     0.2302     0.0870     0.4043     1.8316   139.2000     0.2651     0.5253
  437    8.720   9799.49     0.3115     0.0060     0.2243     0.0872     0.4078     1.9246   139.5200     0.2682     0.5297
  438    8.740   9800.44     0.3133     0.0060     0.2154     0.0874     0.4060     1.9091   139.8400     0.2662     0.5010
  439    8.760   9801.45     0.3180     0.0059     0.2277     0.0876     0.4113     1.8638   140.1600     0.2711     0.4959
  440    8.780   9802.40     0.3100     0.0055     0.2336     0.0878     0.4080     1.7808   140.4800     0.2675     0.5445
  441    8.800   9803.35     0.3107     0.0057     0.2352     0.0880     0.4098     1.8310   140.8000     0.2690     0.5499
  442    8.820   9804.34     0.3119     0.0059     0.2322     0.0882     0.4096     1.8901   141.1200     0.2685     0.5379
  443    8.840   9805.32     0.3172     0.0056     0.2341     0.0884     0.4151     1.7843   141.4400     0.2737     0.5287
  444    8.860   9806.28     0.3203     0.0060     0.2290     0.0886     0.4175     1.8725   141.7600     0.2758     0.5185
  445    8.880   9807.27     0.3227     0.0057     0.2281     0.0888     0.4184     1.7934   142.0800     0.2764     0.5036
  446    8.900   9808.25     0.3208     0.0058     0.2277     0.0890     0.4166     1.8076   142.4000     0.2742     0.5068
  447    8.920   9809.24     0.3176     0.0059     0.2289     0.0892     0.4133     1.8179   142.7200     0.2706     0.5125
  448    8.940   9810.21     0.3153     0.0057     0.2321     0.0894     0.4124     1.8015   143.0400     0.2693     0.5266
  449    8.960   9811.17     0.3164     0.0060     0.2296     0.0896     0.4131     1.8802   143.3600     0.2698     0.5218
  450    8.980   9812.17     0.3180     0.0062     0.2280     0.0898     0.4139     1.9466   143.6800     0.2702     0.5130
  451    9.000   9813.16     0.3187     0.0058     0.2306     0.0900     0.4153     1.8213   144.0000     0.2713     0.5160
  452    9.020   9814.12     0.3144     0.0056     0.2288     0.0902     0.4111     1.7621   144.3200     0.2668     0.5250
  453    9.040   9815.08     0.3139     0.0058     0.2304     0.0904     0.4100     1.8364   144.6400     0.2654     0.5214
  454    9.060   9816.07     0.3113     0.0062     0.2387     0.0906     0.4099     1.9848   144.9600     0.2649     0.5434
  455    9.080   9817.02     0.3051     0.0069     0.2471     0.0908     0.4076     2.2487   145.2800     0.2623     0.5843
  456    9.100   9818.01     0.3074     0.0069     0.2460     0.0910     0.4111     2.2641   145.6000     0.2655     0.5865
  457    9.120   9818.96     0.3195     0.0071     0.2433     0.0912     0.4214     2.2308   145.9200     0.2755     0.5500
  458    9.140   9819.93     0.3390     0.0066     0.1798     0.0914     0.4282     1.9942   146.2400     0.2820     0.4293
  459    9.160   9820.89     0.3367     0.0070     0.1674     0.0916     0.4212     1.9918   146.5600     0.2747     0.3993
  460    9.180   9821.89     0.3144     0.0071     0.1806     0.0918     0.3852     2.2404   146.8800     0.2384     0.3220
  461    9.200   9822.87     0.3140     0.0070     0.2070     0.0920     0.3978     2.2144   147.2000     0.2506     0.4291
  462    9.220   9823.86     0.3150     0.0061     0.2223     0.0922     0.4066     1.9152   147.5200     0.2591     0.4862
  463    9.240   9824.84     0.3125     0.0059     0.2303     0.0924     0.4088     1.8951   147.8400     0.2609     0.5241
  464    9.260   9825.80     0.3180     0.0060     0.2378     0.0926     0.4167     1.9064   148.1600     0.2686     0.5301
  465    9.280   9826.79     0.3158     0.0063     0.2453     0.0928     0.4179     1.9805   148.4800     0.2694     0.5577
  466    9.300   9827.74     0.3139     0.0056     0.2494     0.0930     0.4182     1.7763   148.8000     0.2694     0.5768
  467    9.320   9828.73     0.3155     0.0055     0.2386     0.0932     0.4174     1.7482   149.1200     0.2683     0.5571
  468    9.340   9829.71     0.3165     0.0057     0.2415     0.0934     0.4177     1.8171   149.4400     0.2682     0.5497
  469    9.360   9830.69     0.3178     0.0053     0.2457     0.0936     0.4198     1.6606   149.7600     0.2700     0.5522
  470    9.380   9831.64     0.3181     0.0058     0.2471     0.0938     0.4224     1.8034   150.0800     0.2723     0.5678
  471    9.400   9832.64     0.3206     0.0058     0.2409     0.0940     0.4229     1.8115   150.4000     0.2725     0.5488
  472    9.420   9833.59     0.3171     0.0056     0.2395     0.0942     0.4180     1.7563   150.7200     0.2673     0.5466
  473    9.440   9834.54     0.3200     0.0059     0.2441     0.0944     0.4216     1.8504   151.0400     0.2706     0.5453
  474    9.460   9835.57     0.3212     0.0059     0.2434     0.0946     0.4235     1.8508   151.3600     0.2722     0.5479
  475    9.480   9836.53     0.3205     0.0058     0.2425     0.0948     0.4225     1.8012   151.6800     0.2708     0.5465
  476    9.500   9837.50     0.3195     0.0059     0.2441     0.0950     0.4208     1.8515   152.0000     0.2688     0.5444
  477    9.520   9838.45     0.3253     0.0057     0.2464     0.0952     0.4284     1.7708   152.3200     0.2760     0.5438
  478    9.540   9839.45     0.3182     0.0059     0.2542     0.0954     0.4243     1.8485   152.6400     0.2716     0.5781
  479    9.560   9840.40     0.3145     0.0058     0.2525     0.0956     0.4197     1.8191   152.9600     0.2667     0.5804
  480    9.580   9841.40     0.3207     0.0058     0.2550     0.0958     0.4276     1.8219   153.2800     0.2743     0.5791
  481    9.600   9842.39     0.3163     0.0059     0.2552     0.0960     0.4244     1.8495   153.6000     0.2708     0.5955
  482    9.620   9843.34     0.3167     0.0061     0.2554     0.0962     0.4243     1.9272   153.9200     0.2703     0.5913
  483    9.640   9844.33     0.3162     0.0057     0.2570     0.0964     0.4237     1.7921   154.2400     0.2695     0.5924
  484    9.660   9845.33     0.3193     0.0057     0.2595     0.0966     0.4284     1.7832   154.5600     0.2738     0.5958
  485    9.680   9846.30     0.3216     0.0055     0.2634     0.0968     0.4313     1.7291   154.8800     0.2765     0.5953
  486    9.700   9847.27     0.3205     0.0055     0.2637     0.0970     0.4318     1.7176   155.2000     0.2766     0.6071
  487    9.720   9848.21     0.3244     0.0059     0.2557     0.0972     0.4330     1.8136   155.5200     0.2775     0.5818
  488    9.740   9849.22     0.3299     0.0059     0.2500     0.0974     0.4354     1.7995   155.8400     0.2796     0.5500
  489    9.760   9850.20     0.3286     0.0058     0.2494     0.0976     0.4333     1.7660   156.1600     0.2771     0.5476
  490    9.780   9851.18     0.3284     0.0061     0.2490     0.0978     0.4333     1.8558   156.4800     0.2768     0.5490
  491    9.800   9852.15     0.3297     0.0057     0.2450     0.0980     0.4325     1.7503   156.8000     0.2757     0.5322
  492    9.820   9853.13     0.3255     0.0058     0.2493     0.0982     0.4295     1.7719   157.1200     0.2724     0.5484
  493    9.840   9854.11     0.3192     0.0053     0.2519     0.0984     0.4240     1.6648   157.4400     0.2666     0.5670
  494    9.860   9855.10     0.3153     0.0058     0.2559     0.0986     0.4232     1.8319   157.7600     0.2654     0.5960
  495    9.880   9856.09     0.3127     0.0056     0.2555     0.0988     0.4197     1.7718   158.0800     0.2616     0.5969
  496    9.900   9857.06     0.3045     0.0054     0.2642     0.0990     0.4147     1.7596   158.4000     0.2563     0.6378
  497    9.920   9858.02     0.2966     0.0051     0.2647     0.0992     0.4082     1.7033   158.7200     0.2495     0.6671
  498    9.940   9858.97     0.3012     0.0046     0.2616     0.0994     0.4110     1.5398   159.0400     0.2520     0.6432
  499    9.960   9859.95     0.3097     0.0048     0.2666     0.0996     0.4217     1.5675   159.3600     0.2623     0.6362
  500    9.980   9860.95     0.3093     0.0052     0.2727     0.0998     0.4225     1.6791   159.6800     0.2628     0.6451
  501   10.000   9861.92     0.3141     0.0053     0.2732     0.1000     0.4296     1.6976   160.0000     0.2696     0.6492
  502   10.020   9862.92     0.3176     0.0056     0.2647     0.1002     0.4299     1.7791   160.3200     0.2696     0.6200
  503   10.040   9863.88     0.3278     0.0057     0.2648     0.1004     0.4387     1.7603   160.6400     0.2780     0.5880
  504   10.060   9864.87     0.3248     0.0056     0.2657     0.1006     0.4366     1.7188   160.9600     0.2757     0.6011
  505   10.080   9865.83     0.3271     0.0061     0.2643     0.1008     0.4379     1.8504   161.2800     0.2766     0.5891
  506   10.100   9866.81     0.3320     0.0063     0.2667     0.1010     0.4439     1.9163   161.6000     0.2823     0.5858
  507   10.120   9867.77     0.3357     0.0067     0.2661     0.1012     0.4480     2.0012   161.9200     0.2861     0.5805
  508   10.140   9868.75     0.3347     0.0070     0.2622     0.1014     0.4447     2.0998   162.2400     0.2824     0.5677
  509   10.160   9869.75     0.3379     0.0070     0.2655     0.1016     0.4493     2.0608   162.5600     0.2867     0.5706
  510   10.180   9870.75     0.3423     0.0067     0.2597     0.1018     0.4527     1.9740   162.8800     0.2898     0.5559
  511   10.200   9877.26     0.3431     0.0068     0.2557     0.1020     0.4505     1.9981   163.2000     0.2873     0.5352
  512   10.220   9895.33     0.3445     0.0067     0.2557     0.1022     0.4519     1.9494   163.5200     0.2883     0.5324
  513   10.240   9912.96     0.3458     0.0068     0.2567     0.1024     0.4532     1.9594   163.8400     0.2893     0.5299
  514   10.260   9913.92     0.3413     0.0067     0.2612     0.1026     0.4507     1.9598   164.1600     0.2865     0.5513
  515   10.280   9914.91     0.3416     0.0066     0.2679     0.1028     0.4524     1.9244   164.4800     0.2880     0.5595
  516   10.300   9915.92     0.3406     0.0064     0.2658     0.1030     0.4533     1.8634   164.8000     0.2885     0.5728
  517   10.320   9916.93     0.3386     0.0063     0.2706     0.1032     0.4515     1.8529   165.1200     0.2864     0.5783
  518   10.340   9917.90     0.3383     0.0063     0.2755     0.1034     0.4533     1.8649   165.4400     0.2879     0.5918
  519   10.360   9918.89     0.3399     0.0064     0.2724     0.1036     0.4554     1.8607   165.7600     0.2897     0.5921
  520   10.380   9919.81     0.3462     0.0066     0.2637     0.1038     0.4575     1.9184   166.0800     0.2914     0.5530
  521   10.400   9920.78     0.3532     0.0070     0.2686     0.1040     0.4656     1.9764   166.4000     0.2992     0.5462
  522   10.420   9921.75     0.3507     0.0066     0.2679     0.1042     0.4635     1.8899   166.7200     0.2967     0.5539
  523   10.440   9922.70     0.3530     0.0070     0.2688     0.1044     0.4656     1.9752   167.0400     0.2985     0.5484
  524   10.460   9923.72     0.3537     0.0070     0.2676     0.1046     0.4656     1.9916   167.3600     0.2982     0.5425
  525   10.480   9924.73     0.3553     0.0068     0.2740     0.1048     0.4695     1.9356   167.6800     0.3018     0.5534
  526   10.500   9925.73     0.3516     0.0071     0.2840     0.1050     0.4701     2.0047   168.0000     0.3021     0.5870
  527   10.520   9926.71     0.3567     0.0062     0.2828     0.1052     0.4762     1.7456   168.3200     0.3079     0.5822
  528   10.540   9927.71     0.3599     0.0067     0.2862     0.1054     0.4791     1.8626   168.6400     0.3105     0.5750
  529   10.560   9928.66     0.3611     0.0066     0.2898     0.1056     0.4823     1.8325   168.9600     0.3133     0.5841
  530   10.580   9929.59     0.3614     0.0069     0.2896     0.1058     0.4823     1.8981   169.2800     0.3131     0.5817
  531   10.600   9930.59     0.3666     0.0061     0.2905     0.1060     0.4880     1.6483   169.6000     0.3184     0.5751
  532   10.620   9931.59     0.3713     0.0067     0.2886     0.1062     0.4929     1.8047   169.9200     0.3230     0.5680
  533   10.640   9932.55     0.3700     0.0069     0.2822     0.1064     0.4890     1.8664   170.2400     0.3187     0.5551
  534   10.660   9933.53     0.3664     0.0065     0.2878     0.1066     0.4871     1.7788   170.5600     0.3166     0.5714
  535   10.680   9934.52     0.3658     0.0069     0.2844     0.1068     0.4852     1.8866   170.8800     0.3143     0.5648
  536   10.700   9935.48     0.3656     0.0067     0.2858     0.1070     0.4861     1.8531   171.2000     0.3149     0.5714
  537   10.720   9936.43     0.3678     0.0067     0.2929     0.1072     0.4900     1.8104   171.5200     0.3185     0.5766
  538   10.740   9937.43     0.3734     0.0065     0.2984     0.1074     0.4994     1.7543   171.8400     0.3276     0.5883
  539   10.760   9938.40     0.3786     0.0071     0.2976     0.1076     0.5027     1.9015   172.1600     0.3306     0.5684
  540   10.780   9939.37     0.3720     0.0069     0.2967     0.1078     0.4954     1.8522   172.4800     0.3229     0.5757
  541   10.800   9940.36     0.3763     0.0068     0.3090     0.1080     0.5051     1.8133   172.8000     0.3323     0.5975
  542   10.820   9941.33     0.3786     0.0069     0.3091     0.1082     0.5092     1.8448   173.1200     0.3361     0.6037
  543   10.840   9942.29     0.3862     0.0071     0.3024     0.1084     0.5138     1.8302   173.4400     0.3403     0.5737
  544   10.860   9943.25     0.3781     0.0075     0.3040     0.1086     0.5057     1.9902   173.7600     0.3320     0.5880
  545   10.880   9944.24     0.3809     0.0068     0.2954     0.1088     0.5064     1.7831   174.0800     0.3323     0.5718
  546   10.900   9945.29     0.3856     0.0070     0.2911     0.1090     0.5075     1.8187   174.4000     0.3331     0.5443
  547   10.920   9946.24     0.3841     0.0071     0.3008     0.1092     0.5092     1.8639   174.7200     0.3345     0.5636
  548   10.940   9947.23     0.3792     0.0071     0.3063     0.1094     0.5076     1.8801   175.0400     0.3326     0.5901
  549   10.960   9948.19     0.3808     0.0071     0.3020     0.1096     0.5078     1.8503   175.3600     0.3324     0.5794
  550   10.980   9949.16     0.3864     0.0070     0.3075     0.1098     0.5155     1.8339   175.6800     0.3398     0.5814
  551   11.000   9950.13     0.3923     0.0072     0.3081     0.1100     0.5216     1.8358   176.0000     0.3456     0.5728
  552   11.020   9951.08     0.3918     0.0074     0.3095     0.1102     0.5211     1.8905   176.3200     0.3448     0.5733
  553   11.040   9952.05     0.3990     0.0071     0.3131     0.1104     0.5311     1.7917   176.6400     0.3545     0.5759
  554   11.060   9953.07     0.4042     0.0078     0.3039     0.1106     0.5331     1.9354   176.9600     0.3561     0.5508
  555   11.080   9954.02     0.4063     0.0077     0.2996     0.1108     0.5334     1.8877   177.2800     0.3561     0.5386
  556   11.100   9955.06     0.4100     0.0080     0.3039     0.1110     0.5365     1.9495   177.6000     0.3589     0.5297
  557   11.120   9956.04     0.4093     0.0080     0.3091     0.1112     0.5382     1.9569   177.9200     0.3602     0.5433
  558   11.140   9957.03     0.4016     0.0078     0.3171     0.1114     0.5341     1.9509   178.2400     0.3559     0.5735
  559   11.160   9957.99     0.3978     0.0077     0.3263     0.1116     0.5334     1.9158   178.5600     0.3549     0.5954
  560   11.180   9958.95     0.3941     0.0075     0.3351     0.1118     0.5332     1.8983   178.8800     0.3543     0.6196
  561   11.200   9959.90     0.3958     0.0072     0.3396     0.1120     0.5379     1.8394   179.2000     0.3587     0.6312
  562   11.220   9960.85     0.3995     0.0074     0.3399     0.1122     0.5431     1.8495   179.5200     0.3636     0.6318
  563   11.240   9961.85     0.3977     0.0074     0.3388     0.1124     0.5396     1.8681   179.8400     0.3597     0.6269
  564   11.260   9962.81     0.4021     0.0074     0.3299     0.1126     0.5423     1.8565   180.1600     0.3622     0.6112
  565   11.280   9963.85     0.4026     0.0075     0.3219     0.1128     0.5383     1.8522   180.4800     0.3578     0.5879
  566   11.300   9964.87     0.4107     0.0077     0.3257     0.1130     0.5466     1.8873   180.8000     0.3658     0.5756
  567   11.320   9965.82     0.4066     0.0082     0.3309     0.1132     0.5449     2.0230   181.1200     0.3638     0.5943
  568   11.340   9966.80     0.4036     0.0074     0.3286     0.1134     0.5412     1.8301   181.4400     0.3597     0.5951
  569   11.360   9967.80     0.4099     0.0074     0.3359     0.1136     0.5501     1.8024   181.7600     0.3683     0.5976
  570   11.380   9968.71     0.4127     0.0070     0.3400     0.1138     0.5554     1.6862   182.0800     0.3734     0.6057
  571   11.400   9969.66     0.4061     0.0069     0.3411     0.1140     0.5486     1.6920   182.4000     0.3662     0.6157
  572   11.420   9970.69     0.4081     0.0074     0.3394     0.1142     0.5514     1.8042   182.7200     0.3687     0.6158
  573   11.440   9971.65     0.4111     0.0077     0.3329     0.1144     0.5500     1.8570   183.0400     0.3670     0.5894
  574   11.460   9972.63     0.4169     0.0078     0.3303     0.1146     0.5579     1.8664   183.3600     0.3745     0.5904
  575   11.480   9973.58     0.4273     0.0075     0.3346     0.1148     0.5673     1.7560   183.6800     0.3836     0.5695
  576   11.500   9974.62     0.4279     0.0078     0.3330     0.1150     0.5677     1.8061   184.0000     0.3837     0.5682
  577   11.520   9975.60     0.4216     0.0078     0.3317     0.1152     0.5605     1.8622   184.3200     0.3762     0.5729
  578   11.540   9976.56     0.4230     0.0081     0.3402     0.1154     0.5645     1.9054   184.6400     0.3798     0.5831
  579   11.560   9977.52     0.4276     0.0081     0.3445     0.1156     0.5716     1.8973   184.9600     0.3866     0.5875
  580   11.580   9978.46     0.4259     0.0082     0.3455     0.1158     0.5718     1.9233   185.2800     0.3865     0.5991
  581   11.600   9979.48     0.4249     0.0081     0.3391     0.1160     0.5675     1.8967   185.6000     0.3819     0.5856
  582   11.620   9980.43     0.4227     0.0078     0.3375     0.1162     0.5653     1.8329   185.9200     0.3794     0.5887
  583   11.640   9981.41     0.4268     0.0079     0.3362     0.1164     0.5681     1.8469   186.2400     0.3818     0.5761
  584   11.660   9982.41     0.4308     0.0079     0.3409     0.1166     0.5731     1.8581   186.5600     0.3865     0.5749
  585   11.680   9983.41     0.4314     0.0075     0.3371     0.1168     0.5729     1.7276   186.8800     0.3860     0.5697
  586   11.700   9984.36     0.4298     0.0075     0.3382     0.1170     0.5716     1.7537   187.2000     0.3844     0.5739
  587   11.720   9985.40     0.4345     0.0080     0.3428     0.1172     0.5781     1.8436   187.5200     0.3906     0.5755
  588   11.740   9986.36     0.4447     0.0081     0.3404     0.1174     0.5884     1.8217   187.8400     0.4005     0.5608
  589   11.760   9987.31     0.4413     0.0075     0.3444     0.1176     0.5848     1.6947   188.1600     0.3966     0.5647
  590   11.780   9988.31     0.4421     0.0078     0.3441     0.1178     0.5878     1.7724   188.4800     0.3993     0.5736
  591   11.800   9989.32     0.4428     0.0078     0.3372     0.1180     0.5842     1.7536   188.8000     0.3954     0.5530
  592   11.820   9990.29     0.4469     0.0080     0.3447     0.1182     0.5903     1.7855   189.1200     0.4012     0.5567
  593   11.840   9991.28     0.4423     0.0081     0.3514     0.1184     0.5894     1.8411   189.4400     0.3999     0.5798
  594   11.860   9992.22     0.4454     0.0077     0.3504     0.1186     0.5928     1.7263   189.7600     0.4030     0.5760
  595   11.880   9993.26     0.4435     0.0080     0.3443     0.1188     0.5893     1.7936   190.0800     0.3992     0.5722
  596   11.900   9994.22     0.4405     0.0081     0.3440     0.1190     0.5847     1.8399   190.4000     0.3943     0.5688
  597   11.920   9995.20     0.4356     0.0081     0.3476     0.1192     0.5816     1.8425   190.7200     0.3909     0.5847
  598   11.940   9996.18     0.4308     0.0075     0.3467     0.1194     0.5758     1.7413   191.0400     0.3848     0.5870
  599   11.960   9997.16     0.4304     0.0078     0.3327     0.1196     0.5713     1.8090   191.3600     0.3799     0.5681
  600   11.980   9998.15     0.4321     0.0074     0.3346     0.1198     0.5726     1.7016   191.6800     0.3809     0.5638
  601   12.000   9999.11     0.4239     0.0078     0.3467     0.1200     0.5688     1.8322   192.0000     0.3768     0.5973
  602   12.020  10000.07     0.4168     0.0081     0.3576     0.1202     0.5666     1.9388   192.3200     0.3743     0.6316
  603   12.040  10001.06     0.4230     0.0078     0.3502     0.1204     0.5718     1.8503   192.6400     0.3791     0.6170
  604   12.060  10002.02     0.4228     0.0079     0.3455     0.1206     0.5671     1.8438   192.9600     0.3742     0.5964
  605   12.080  10003.00     0.4224     0.0085     0.3545     0.1208     0.5696     1.9904   193.2800     0.3763     0.6100
  606   12.100  10003.94     0.4227     0.0085     0.3613     0.1210     0.5737     2.0172   193.6000     0.3801     0.6275
  607   12.120  10004.94     0.4216     0.0088     0.3611     0.1212     0.5742     2.0823   193.9200     0.3803     0.6366
  608   12.140  10005.92     0.4277     0.0081     0.3626     0.1214     0.5800     1.9053   194.2400     0.3857     0.6251
  609   12.160  10006.92     0.4369     0.0079     0.3622     0.1216     0.5903     1.8216   194.5600     0.3958     0.6156
  610   12.180  10025.32     0.4427     0.0078     0.3526     0.1218     0.5922     1.7914   194.8800     0.3973     0.5893
  611   12.200  10042.49     0.4484     0.0079     0.3570     0.1220     0.5951     1.7875   195.2000     0.3999     0.5679
  612   12.220  10043.47     0.4524     0.0076     0.3627     0.1222     0.6043     1.6872   195.5200     0.4088     0.5860
  613   12.240  10044.47     0.4519     0.0081     0.3642     0.1224     0.6049     1.7964   195.8400     0.4090     0.5913
  614   12.260  10045.46     0.4514     0.0082     0.3578     0.1226     0.6020     1.8201   196.1600     0.4058     0.5811
  615   12.280  10046.42     0.4508     0.0083     0.3608     0.1228     0.6012     1.8509   196.4800     0.4048     0.5816
  616   12.300  10047.39     0.4505     0.0081     0.3590     0.1230     0.6020     1.7969   196.8000     0.4052     0.5870
  617   12.320  10048.38     0.4514     0.0084     0.3579     0.1232     0.6017     1.8633   197.1200     0.4046     0.5799
  618   12.340  10049.40     0.4535     0.0084     0.3555     0.1234     0.6038     1.8535   197.4400     0.4063     0.5768
  619   12.360  10050.35     0.4520     0.0077     0.3532     0.1236     0.5999     1.7117   197.7600     0.4021     0.5685
  620   12.380  10051.34     0.4520     0.0081     0.3544     0.1238     0.6019     1.7820   198.0800     0.4038     0.5772
  621   12.400  10052.29     0.4479     0.0076     0.3560     0.1240     0.5958     1.6885   198.4000     0.3974     0.5742
  622   12.420  10053.26     0.4480     0.0075     0.3617     0.1242     0.5998     1.6534   198.7200     0.4011     0.5919
  623   12.440  10054.27     0.4468     0.0072     0.3612     0.1244     0.5981     1.6077   199.0400     0.3991     0.5909
  624   12.460  10055.25     0.4476     0.0068     0.3589     0.1246     0.5989     1.5342   199.3600     0.3995     0.5895
  625   12.480  10056.21     0.4431     0.0067     0.3534     0.1248     0.5928     1.5005   199.6800     0.3931     0.5888
  626   12.500  10057.18     0.4393     0.0072     0.3480     0.1250     0.5863     1.6403   200.0000     0.3863     0.5825
  627   12.520  10058.19     0.4353     0.0063     0.3492     0.1252     0.5820     1.4603   200.3200     0.3817     0.5870
  628   12.540  10059.17     0.4255     0.0055     0.3417     0.1254     0.5698     1.3004   200.6400     0.3691     0.5906
  629   12.560  10060.12     0.4189     0.0058     0.3371     0.1256     0.5611     1.3752   200.9600     0.3602     0.5914
  630   12.580  10061.09     0.4095     0.0059     0.3405     0.1258     0.5519     1.4420   201.2800     0.3506     0.6084
  631   12.600  10062.03     0.3977     0.0057     0.3311     0.1260     0.5368     1.4167   201.6000     0.3352     0.6122
  632   12.620  10063.05     0.4013     0.0057     0.3356     0.1262     0.5405     1.4209   201.9200     0.3385     0.6056
  633   12.640  10064.05     0.3964     0.0057     0.3213     0.1264     0.5337     1.4371   202.2400     0.3315     0.6053
  634   12.660  10064.99     0.4199     0.0062     0.3268     0.1266     0.5562     1.5168   202.5600     0.3537     0.5600
  635   12.680  10066.00     0.4317     0.0058     0.3224     0.1268     0.5675     1.3307   202.8800     0.3646     0.5388
  636   12.700  10066.97     0.4207     0.0060     0.3197     0.1270     0.5556     1.4113   203.2000     0.3524     0.5512
  637   12.720  10067.92     0.4183     0.0068     0.3145     0.1272     0.5505     1.6346   203.5200     0.3469     0.5400
  638   12.740  10068.92     0.4115     0.0070     0.3066     0.1274     0.5397     1.6872   203.8400     0.3358     0.5289
  639   12.760  10069.86     0.4090     0.0070     0.3133     0.1276     0.5403     1.7032   204.1600     0.3362     0.5507
  640   12.780  10070.86     0.4231     0.0072     0.3126     0.1278     0.5546     1.7164   204.4800     0.3501     0.5292
  641   12.800  10071.85     0.4271     0.0072     0.3129     0.1280     0.5579     1.6955   204.8000     0.3531     0.5196
  642   12.820  10072.84     0.4332     0.0075     0.3179     0.1282     0.5663     1.7218   205.1200     0.3612     0.5225
  643   12.840  10073.79     0.4380     0.0079     0.3270     0.1284     0.5739     1.8093   205.4400     0.3685     0.5299
  644   12.860  10074.80     0.4437     0.0075     0.3358     0.1286     0.5836     1.6965   205.7600     0.3778     0.5410
  645   12.880  10075.77     0.4386     0.0075     0.3421     0.1288     0.5815     1.7234   206.0800     0.3755     0.5633
  646   12.900  10076.74     0.4391     0.0075     0.3446     0.1290     0.5833     1.7110   206.4000     0.3769     0.5688
  647   12.920  10077.75     0.4430     0.0079     0.3561     0.1292     0.5908     1.7920   206.7200     0.3841     0.5798
  648   12.940  10078.70     0.4457     0.0085     0.3549     0.1294     0.5960     1.9009   207.0400     0.3889     0.5872
  649   12.960  10079.70     0.4296     0.0089     0.3465     0.1296     0.5758     2.0818   207.3600     0.3684     0.5930
  650   12.980  10080.68     0.4395     0.0086     0.3514     0.1298     0.5866     1.9805   207.6800     0.3790     0.5819
  651   13.000  10081.67     0.4442     0.0085     0.3618     0.1300     0.5945     1.9069   208.0000     0.3865     0.5897
  652   13.020  10082.62     0.4364     0.0086     0.3756     0.1302     0.5924     1.9757   208.3200     0.3840     0.6279
  653   13.040  10083.58     0.4369     0.0075     0.3771     0.1304     0.5954     1.7250   208.6400     0.3868     0.6387
  654   13.060  10084.56     0.4416     0.0080     0.3876     0.1306     0.6025     1.8166   208.9600     0.3935     0.6413
  655   13.080  10085.57     0.4488     0.0078     0.3873     0.1308     0.6120     1.7341   209.2800     0.4027     0.6398
  656   13.100  10086.56     0.4568     0.0078     0.3892     0.1310     0.6213     1.7119   209.6000     0.4117     0.6330
  657   13.120  10087.54     0.4716     0.0079     0.3909     0.1312     0.6351     1.6815   209.9200     0.4251     0.6066
  658   13.140  10088.52     0.4860     0.0083     0.3866     0.1314     0.6487     1.7145   210.2400     0.4385     0.5837
  659   13.160  10089.52     0.4993     0.0090     0.3877     0.1316     0.6628     1.8048   210.5600     0.4522     0.5694
  660   13.180  10090.46     0.5079     0.0091     0.3882     0.1318     0.6707     1.7871   210.8800     0.4598     0.5561
  661   13.200  10091.49     0.5060     0.0095     0.3810     0.1320     0.6668     1.8656   211.2000     0.4556     0.5507
  662   13.220  10092.44     0.5162     0.0093     0.3775     0.1322     0.6762     1.8154   211.5200     0.4646     0.5350
  663   13.240  10093.44     0.5249     0.0091     0.3755     0.1324     0.6825     1.7461   211.8400     0.4706     0.5158
  664   13.260  10094.40     0.5199     0.0090     0.3820     0.1326     0.6796     1.7198   212.1600     0.4674     0.5298
  665   13.280  10095.39     0.5144     0.0091     0.3887     0.1328     0.6769     1.7688   212.4800     0.4645     0.5474
  666   13.300  10096.35     0.5120     0.0090     0.3967     0.1330     0.6775     1.7479   212.8000     0.4647     0.5616
  667   13.320  10097.32     0.5152     0.0090     0.4023     0.1332     0.6836     1.7593   213.1200     0.4705     0.5690
  668   13.340  10098.30     0.5157     0.0090     0.3968     0.1334     0.6835     1.7398   213.4400     0.4700     0.5658
  669   13.360  10099.26     0.5231     0.0092     0.3974     0.1336     0.6902     1.7657   213.7600     0.4764     0.5543
  670   13.380  10100.26     0.5198     0.0094     0.3829     0.1338     0.6823     1.8037   214.0800     0.4683     0.5406
  671   13.400  10101.25     0.5230     0.0090     0.3863     0.1340     0.6843     1.7280   214.4000     0.4699     0.5322
  672   13.420  10102.25     0.5247     0.0095     0.3836     0.1342     0.6868     1.8152   214.7200     0.4721     0.5334
  673   13.440  10103.21     0.5360     0.0095     0.3823     0.1344     0.6962     1.7787   215.0400     0.4812     0.5133
  674   13.460  10104.21     0.5347     0.0097     0.3802     0.1346     0.6946     1.8077   215.3600     0.4792     0.5135
  675   13.480  10105.21     0.5348     0.0100     0.3764     0.1348     0.6937     1.8573   215.6800     0.4780     0.5093
  676   13.500  10106.18     0.5316     0.0098     0.3721     0.1350     0.6879     1.8359   216.0000     0.4719     0.5029
  677   13.520  10107.17     0.5229     0.0098     0.3780     0.1352     0.6806     1.8504   216.3200     0.4643     0.5175
  678   13.540  10108.12     0.5076     0.0088     0.3903     0.1354     0.6695     1.7281   216.6400     0.4528     0.5522
  679   13.560  10109.11     0.5077     0.0094     0.3932     0.1356     0.6739     1.8469   216.9600     0.4569     0.5691
  680   13.580  10110.06     0.5067     0.0088     0.3969     0.1358     0.6717     1.7307   217.2800     0.4544     0.5653
  681   13.600  10111.01     0.5060     0.0092     0.3973     0.1360     0.6732     1.8189   217.6000     0.4556     0.5753
  682   13.620  10112.04     0.5079     0.0095     0.3937     0.1362     0.6749     1.8746   217.9200     0.4570     0.5722
  683   13.640  10113.00     0.5080     0.0094     0.3955     0.1364     0.6739     1.8639   218.2400     0.4557     0.5677
  684   13.660  10114.02     0.5123     0.0095     0.3959     0.1366     0.6794     1.8500   218.5600     0.4609     0.5673
  685   13.680  10114.98     0.5069     0.0096     0.4014     0.1368     0.6744     1.8993   218.8800     0.4555     0.5751
  686   13.700  10115.98     0.5172     0.0095     0.3987     0.1370     0.6850     1.8307   219.2000     0.4658     0.5639
  687   13.720  10116.93     0.5241     0.0089     0.4016     0.1372     0.6937     1.6976   219.5200     0.4741     0.5623
  688   13.740  10117.92     0.5322     0.0087     0.4025     0.1374     0.7007     1.6467   219.8400     0.4808     0.5487
  689   13.760  10118.87     0.5312     0.0090     0.4038     0.1376     0.7012     1.6917   220.1600     0.4810     0.5555
  690   13.780  10119.90     0.5363     0.0085     0.4083     0.1378     0.7083     1.5866   220.4800     0.4878     0.5571
  691   13.800  10120.86     0.5508     0.0091     0.4091     0.1380     0.7219     1.6637   220.8000     0.5011     0.5374
  692   13.820  10121.85     0.5722     0.0086     0.3997     0.1382     0.7421     1.5282   221.1200     0.5210     0.5113
  693   13.840  10122.83     0.5863     0.0088     0.3918     0.1384     0.7510     1.5098   221.4400     0.5295     0.4790
  694   13.860  10123.81     0.5936     0.0091     0.3919     0.1386     0.7587     1.5448   221.7600     0.5369     0.4739
  695   13.880  10124.78     0.5930     0.0092     0.3879     0.1388     0.7555     1.5556   222.0800     0.5334     0.4652
  696   13.900  10125.74     0.5899     0.0089     0.3925     0.1390     0.7548     1.5090   222.4000     0.5324     0.4763
  697   13.920  10126.77     0.5881     0.0088     0.3918     0.1392     0.7532     1.4854   222.7200     0.5305     0.4788
  698   13.940  10127.74     0.5827     0.0085     0.3940     0.1394     0.7472     1.4587   223.0400     0.5242     0.4814
  699   13.960  10128.74     0.5728     0.0087     0.3989     0.1396     0.7399     1.4975   223.3600     0.5165     0.5000
  700   13.980  10129.69     0.5732     0.0085     0.4025     0.1398     0.7412     1.4823   223.6800     0.5176     0.5031
  701   14.000  10130.64     0.5721     0.0084     0.4071     0.1400     0.7427     1.4751   224.0000     0.5187     0.5134
  702   14.020  10131.63     0.5813     0.0090     0.4132     0.1402     0.7554     1.5561   224.3200     0.5310     0.5166
  703   14.040  10132.59     0.5941     0.0099     0.4136     0.1404     0.7647     1.6662   224.6400     0.5401     0.4922
  704   14.060  10137.01     0.6019     0.0088     0.4033     0.1406     0.7734     1.4679   224.9600     0.5485     0.4893
  705   14.080  10158.42     0.6358     0.0058     0.3883     0.1408     0.8010     0.9671   225.2800     0.5758     0.4423
  706   14.100  10179.82     0.6697     0.0034     0.3737     0.1410     0.8286     0.5702   225.6000     0.6030     0.3953
  707   14.120  10187.57     0.6917     0.0038     0.3965     0.1412     0.8536     0.5538   225.9200     0.6276     0.3889
  708   14.140  10188.57     0.7994     0.0051     0.4281     0.1414     0.9752     0.6861   226.2400     0.7489     0.3729
  709   14.160  10189.55     1.3263     0.0056     0.3720     0.1416     1.4937     0.4713   226.5600     1.2672     0.2083
  710   14.180  10190.51     2.3576     0.0055     0.2528     0.1418     2.4834     0.2571   226.8800     2.2565     0.0712
  711   14.200  10191.49     3.5940     0.0048     0.1207     0.1420     3.6650     0.1397   227.2000     3.4378     0.0080
  712   14.220  10192.51     4.7828     0.0051     0.0570     0.1422     4.8102     0.1110   227.5200     4.5827    -0.0168
  713   14.240  10193.50     5.5382     0.0052     0.0316     0.1424     5.5547     0.0955   227.8400     5.3269    -0.0193
  714   14.260  10194.49     5.8058     0.0082     0.0455     0.1426     5.8190     0.1411   228.1600     5.5908    -0.0199
  715   14.280  10195.48     5.7080     0.0118     0.0581     0.1428     5.7317     0.2056   228.4800     5.5033    -0.0157
  716   14.300  10196.46     5.5144     0.0130     0.0814     0.1430     5.5463     0.2335   228.8000     5.3175    -0.0126
  717   14.320  10197.44     5.3448     0.0135     0.0933     0.1432     5.3834     0.2515   229.1200     5.1542    -0.0100
  718   14.340  10198.38     5.3907     0.0157     0.1095     0.1434     5.4328     0.2920   229.4400     5.2034    -0.0083
  719   14.360  10199.37     5.6707     0.0114     0.1309     0.1436     5.7232     0.2026   229.7600     5.4934    -0.0034
  720   14.380  10200.36     6.1202     0.0096     0.1081     0.1438     6.1716     0.1585   230.0800     5.9416    -0.0036
  721   14.400  10201.33     6.7669     0.0097     0.0888     0.1440     6.8058     0.1463   230.4000     6.5754    -0.0078
  722   14.420  10202.35     7.6185     0.0099     0.0772     0.1442     7.6507     0.1334   230.7200     7.4200    -0.0091
  723   14.440  10203.37     8.6913     0.0118     0.0536     0.1444     8.7272     0.1409   231.0400     8.4961    -0.0070
  724   14.460  10204.34     9.3069     0.0112     0.0188     0.1446     9.3162     0.1211   231.3600     9.0849    -0.0135
  725   14.480  10205.33     9.4492     0.0110     0.0152     0.1448     9.4565     0.1158   231.6800     9.2249    -0.0138
  726   14.500  10206.31     9.4873     0.0110     0.0386     0.1450     9.4982     0.1160   232.0000     9.2662    -0.0128
  727   14.520  10207.27     9.6956     0.0118     0.0862     0.1452     9.7260     0.1233   232.3200     9.4937    -0.0077
  728   14.540  10208.25     9.9236     0.0114     0.1122     0.1454     9.9666     0.1154   232.6400     9.7340    -0.0044
  729   14.560  10209.19    10.1273     0.0113     0.1260     0.1456    10.1782     0.1114   232.9600     9.9452    -0.0025
  730   14.580  10210.18    10.1779     0.0110     0.1377     0.1458    10.2358     0.1080   233.2800    10.0025    -0.0008
  731   14.600  10211.13    10.1093     0.0109     0.1422     0.1460    10.1685     0.1070   233.6000     9.9349    -0.0005
  732   14.620  10212.12     9.9410     0.0120     0.1515     0.1462    10.0045     0.1199   233.9200     9.7706     0.0005
  733   14.640  10213.09     9.8945     0.0124     0.1458     0.1464     9.9570     0.1252   234.2400     9.7227     0.0003
  734   14.660  10214.06     9.9301     0.0119     0.1457     0.1466     9.9923     0.1198   234.5600     9.7578     0.0002
  735   14.680  10214.99     9.9155     0.0123     0.1496     0.1468     9.9767     0.1236   234.8800     9.7418    -0.0001
  736   14.700  10215.96     9.7247     0.0114     0.1509     0.1470     9.7885     0.1167   235.2000     9.5533     0.0005
  737   14.720  10216.94     9.6142     0.0106     0.1483     0.1472     9.6779     0.1097   235.5200     9.4423     0.0005
  738   14.740  10217.86     9.5854     0.0103     0.1497     0.1474     9.6479     0.1080   235.8400     9.4121     0.0001
  739   14.760  10218.86     9.6275     0.0097     0.1488     0.1476     9.6908     0.1007   236.1600     9.4547     0.0003
  740   14.780  10219.89     9.7311     0.0113     0.1475     0.1478     9.7938     0.1159   236.4800     9.5573     0.0001
  741   14.800  10220.81     9.9786     0.0096     0.1494     0.1480    10.0411     0.0973   236.8000     9.8042     0.0001
  742   14.820  10221.78    10.1711     0.0093     0.1528     0.1482    10.2347     0.0924   237.1200     9.9976     0.0003
  743   14.840  10222.71    10.3400     0.0086     0.1504     0.1484    10.4036     0.0838   237.4400    10.1661     0.0003
  744   14.860  10223.69    10.3340     0.0092     0.1507     0.1486    10.3976     0.0891   237.7600    10.1598     0.0003
  745   14.880  10224.59    10.1961     0.0101     0.1533     0.1488    10.2596     0.0988   238.0800    10.0216     0.0002
  746   14.900  10225.52    10.0364     0.0106     0.1525     0.1490    10.1002     0.1056   238.4000     9.8618     0.0003
  747   14.920  10226.50     9.9034     0.0104     0.1526     0.1492     9.9669     0.1044   238.7200     9.7282     0.0002
  748   14.940  10227.45     9.6659     0.0106     0.1523     0.1494     9.7307     0.1092   239.0400     9.4917     0.0005
  749   14.960  10228.43     9.4437     0.0099     0.1531     0.1496     9.5084     0.1042   239.3600     9.2690     0.0005
  750   14.980  10229.42     9.2314     0.0093     0.1532     0.1498     9.2963     0.0998   239.6800     9.0566     0.0005
  751   15.000  10230.42     9.0161     0.0084     0.1535     0.1500     9.0811     0.0925   240.0000     8.8411     0.0005
  752   15.020  10231.37     8.7364     0.0081     0.1533     0.1502     8.8001     0.0922   240.3200     8.5597     0.0002
  753   15.040  10232.36     8.4222     0.0073     0.1517     0.1504     8.4856     0.0858   240.6400     8.2450     0.0001
  754   15.060  10233.32     8.1746     0.0062     0.1550     0.1506     8.2395     0.0748   240.9600     7.9985     0.0005
  755   15.080  10234.27     8.2407     0.0053     0.1547     0.1508     8.3056     0.0643   241.2800     8.0643     0.0005
  756   15.100  10235.26     8.5363     0.0057     0.1548     0.1510     8.6013     0.0671   241.6000     8.3597     0.0005
  757   15.120  10236.23     9.0808     0.0059     0.1556     0.1512     9.1463     0.0666   241.9200     8.9044     0.0005
  758   15.140  10237.23     9.7761     0.0068     0.1558     0.1514     9.8414     0.0718   242.2400     9.5992     0.0004
  759   15.160  10238.23    10.2923     0.0077     0.1535     0.1516    10.3570     0.0770   242.5600    10.1144     0.0002
  760   15.180  10239.21    10.7491     0.0090     0.1553     0.1518    10.8142     0.0847   242.8800    10.5713     0.0003
  761   15.200  10240.13    11.0816     0.0102     0.1558     0.1520    11.1471     0.0930   243.2000    10.9039     0.0004
  762   15.220  10241.06    11.3437     0.0118     0.1546     0.1522    11.4092     0.1055   243.5200    11.1657     0.0004
  763   15.240  10242.00    11.5733     0.0122     0.1582     0.1524    11.6401     0.1067   243.8400    11.3963     0.0006
  764   15.260  10242.91    11.9083     0.0143     0.1527     0.1526    11.9720     0.1212   244.1600    11.7279    -0.0001
  765   15.280  10243.82    12.1106     0.0154     0.1556     0.1528    12.1758     0.1277   244.4800    11.9313     0.0002
  766   15.300  10244.76    12.1858     0.0155     0.1559     0.1530    12.2510     0.1269   244.8000    12.0062     0.0002
  767   15.320  10245.69    12.0783     0.0166     0.1578     0.1532    12.1447     0.1366   245.1200    11.8996     0.0004
  768   15.340  10246.64    11.8705     0.0170     0.1541     0.1534    11.9358     0.1415   245.4400    11.6903     0.0002
  769   15.360  10247.56    11.5287     0.0178     0.1585     0.1536    11.5948     0.1515   245.7600    11.3491     0.0003
  770   15.380  10248.51    11.1180     0.0158     0.1557     0.1538    11.1834     0.1395   246.0800    10.9374     0.0002
  771   15.400  10249.44    10.8233     0.0147     0.1572     0.1540    10.8894     0.1346   246.4000    10.6430     0.0003
  772   15.420  10250.37    10.4327     0.0129     0.1557     0.1542    10.4978     0.1222   246.7200    10.2511     0.0001
  773   15.440  10251.30    10.0123     0.0109     0.1579     0.1544    10.0784     0.1072   247.0400     9.8313     0.0003
  774   15.460  10252.21     9.3948     0.0091     0.1594     0.1546     9.4616     0.0963   247.3600     9.2142     0.0005
  775   15.480  10253.19     8.8906     0.0083     0.1596     0.1548     8.9574     0.0930   247.6800     8.7098     0.0005
  776   15.500  10254.16     8.5941     0.0070     0.1587     0.1550     8.6606     0.0815   248.0000     8.4126     0.0004
  777   15.520  10255.16     8.4886     0.0060     0.1606     0.1552     8.5559     0.0705   248.3200     8.3076     0.0006
  778   15.540  10256.16     8.5000     0.0069     0.1593     0.1554     8.5671     0.0813   248.6400     8.3185     0.0005
  779   15.560  10257.13     8.5869     0.0076     0.1569     0.1556     8.6531     0.0890   248.9600     8.4041     0.0002
  780   15.580  10258.14     8.7260     0.0075     0.1620     0.1558     8.7934     0.0869   249.2800     8.5442     0.0006
  781   15.600  10259.10     8.8717     0.0065     0.1620     0.1560     8.9396     0.0730   249.6000     8.6900     0.0006
  782   15.620  10260.07     8.9030     0.0079     0.1607     0.1562     8.9708     0.0892   249.9200     8.7209     0.0006
  783   15.640  10261.00     8.8782     0.0092     0.1613     0.1564     8.9460     0.1041   250.2400     8.6957     0.0006
  784   15.660  10261.97     8.7386     0.0100     0.1619     0.1566     8.8059     0.1143   250.5600     8.5553     0.0004
  785   15.680  10262.96     8.6111     0.0094     0.1618     0.1568     8.6792     0.1084   250.8800     8.4283     0.0006
  786   15.700  10263.89     8.5731     0.0096     0.1617     0.1570     8.6409     0.1113   251.2000     8.3897     0.0005
  787   15.720  10264.92     8.6017     0.0098     0.1621     0.1572     8.6696     0.1141   251.5200     8.4181     0.0005
  788   15.740  10265.88     8.6437     0.0095     0.1627     0.1574     8.7119     0.1102   251.8400     8.4600     0.0006
  789   15.760  10266.87     8.5520     0.0100     0.1626     0.1576     8.6205     0.1157   252.1600     8.3683     0.0006
  790   15.780  10267.83     8.4542     0.0100     0.1625     0.1578     8.5227     0.1184   252.4800     8.2702     0.0007
  791   15.800  10268.84     8.4185     0.0093     0.1617     0.1580     8.4860     0.1110   252.8000     8.2332     0.0003
  792   15.820  10269.79     8.2915     0.0089     0.1630     0.1582     8.3597     0.1073   253.1200     8.1066     0.0005
  793   15.840  10270.79     8.0778     0.0089     0.1638     0.1584     8.1466     0.1089   253.4400     7.8932     0.0007
  794   15.860  10271.75     7.7494     0.0100     0.1644     0.1586     7.8184     0.1277   253.7600     7.5646     0.0007
  795   15.880  10272.71     7.4350     0.0090     0.1638     0.1588     7.5040     0.1204   254.0800     7.2499     0.0007
  796   15.900  10273.73     7.2280     0.0081     0.1643     0.1590     7.2970     0.1120   254.4000     7.0426     0.0007
  797   15.920  10274.69     7.2168     0.0074     0.1644     0.1592     7.2858     0.1027   254.7200     7.0311     0.0007
  798   15.940  10275.66     7.2501     0.0069     0.1647     0.1594     7.3194     0.0960   255.0400     7.0644     0.0008
  799   15.960  10276.62     7.3294     0.0074     0.1654     0.1596     7.3984     0.1016   255.3600     7.1431     0.0007
  800   15.980  10277.61     7.4573     0.0066     0.1651     0.1598     7.5267     0.0886   255.6800     7.2710     0.0007
  801   16.000  10278.59     7.6043     0.0071     0.1653     0.1600     7.6739     0.0935   256.0000     7.4179     0.0008
  802   16.020  10279.62     7.8623     0.0074     0.1662     0.1602     7.9320     0.0955   256.3200     7.6757     0.0007
  803   16.040  10280.58     8.0673     0.0094     0.1661     0.1604     8.1370     0.1171   256.6400     7.8804     0.0007
  804   16.060  10281.56     8.0815     0.0096     0.1663     0.1606     8.1513     0.1185   256.9600     7.8944     0.0007
  805   16.080  10282.55     7.9781     0.0111     0.1658     0.1608     8.0478     0.1402   257.2800     7.7906     0.0007
  806   16.100  10283.50     7.7969     0.0126     0.1656     0.1610     7.8665     0.1610   257.6000     7.6089     0.0006
  807   16.120  10284.47     7.5695     0.0122     0.1668     0.1612     7.6397     0.1595   257.9200     7.3818     0.0008
  808   16.140  10285.38     7.2644     0.0124     0.1668     0.1614     7.3344     0.1670   258.2400     7.0761     0.0007
  809   16.160  10286.41     6.9476     0.0116     0.1675     0.1616     7.0179     0.1628   258.5600     6.7593     0.0009
  810   16.180  10300.19     6.6157     0.0112     0.1676     0.1618     6.6861     0.1611   258.8800     6.4272     0.0009
  811   16.200  10314.74     6.2863     0.0114     0.1678     0.1620     6.3567     0.1647   259.2000     6.0975     0.0009
  812   16.220  10320.54     6.0627     0.0141     0.1678     0.1622     6.1332     0.2304   259.5200     5.8737     0.0010
  813   16.240  10321.56     5.9083     0.0179     0.1683     0.1624     5.9789     0.3008   259.8400     5.7191     0.0010
  814   16.260  10322.54     5.6666     0.0242     0.1683     0.1626     5.7368     0.4235   260.1600     5.4767     0.0009
  815   16.280  10323.53     5.3846     0.0380     0.1688     0.1628     5.4554     0.6972   260.4800     5.1949     0.0011
  816   16.300  10324.48     4.8905     0.0608     0.1691     0.1630     4.9616     1.2223   260.8000     4.7008     0.0013
  817   16.320  10325.43     4.1029     0.0803     0.1682     0.1632     4.1739     1.8917   261.1200     3.9128     0.0015
  818   16.340  10326.43     3.2239     0.0878     0.1693     0.1634     3.2951     2.6049   261.4400     3.0336     0.0020
  819   16.360  10327.43     2.5424     0.0854     0.1697     0.1636     2.6136     3.2089   261.7600     2.3518     0.0025
  820   16.380  10328.38     2.1432     0.0808     0.1700     0.1638     2.2145     3.6660   262.0800     1.9524     0.0031
  821   16.400  10329.42     1.9008     0.0749     0.1725     0.1640     1.9725     3.8388   262.4000     1.7101     0.0039
  822   16.420  10330.39     1.5464     0.0665     0.1936     0.1642     1.6222     4.0909   262.7200     1.3595     0.0121
  823   16.440  10331.36     1.2403     0.0540     0.2825     0.1644     1.3454     4.1120   263.0400     1.0824     0.0798
  824   16.460  10332.33     1.0768     0.0435     0.4386     0.1646     1.2373     3.9175   263.3600     0.9739     0.2238
  825   16.480  10333.33     1.1524     0.0331     0.5527     0.1648     1.3744     2.9563   263.6800     1.1107     0.3271
  826   16.500  10334.29     1.2599     0.0287     0.5764     0.1650     1.4993     2.3017   264.0000     1.2353     0.3279
  827   16.520  10335.28     1.2648     0.0263     0.5314     0.1652     1.4962     2.0746   264.3200     1.2318     0.3129
  828   16.540  10336.26     1.1717     0.0244     0.5437     0.1654     1.3968     2.0545   264.6400     1.1322     0.3277
  829   16.560  10337.23     1.0519     0.0228     0.5202     0.1656     1.2756     2.1204   264.9600     1.0106     0.3632
  830   16.580  10338.20     0.9082     0.0212     0.5320     0.1658     1.1254     2.2586   265.2800     0.8601     0.4091
  831   16.600  10339.24     0.8315     0.0192     0.5770     0.1660     1.0699     2.2823   265.6000     0.8043     0.4995
  832   16.620  10340.21     0.7963     0.0166     0.5922     0.1662     1.0434     2.0564   265.9200     0.7775     0.5430
  833   16.640  10341.18     0.7626     0.0161     0.6076     0.1664     1.0155     2.0949   266.2400     0.7493     0.5816
  834   16.660  10342.15     0.7494     0.0154     0.6155     0.1666     1.0067     2.0484   266.5600     0.7401     0.6027
  835   16.680  10343.12     0.7253     0.0145     0.6232     0.1668     0.9866     1.9925   266.8800     0.7197     0.6327
  836   16.700  10344.13     0.7290     0.0145     0.6347     0.1670     0.9943     2.0123   267.2000     0.7271     0.6391
  837   16.720  10345.11     0.7393     0.0149     0.6478     0.1672     1.0082     2.0043   267.5200     0.7407     0.6387
  838   16.740  10346.08     0.7408     0.0146     0.6613     0.1674     1.0177     1.9753   267.8400     0.7499     0.6559
  839   16.760  10347.07     0.7584     0.0148     0.6588     0.1676     1.0358     1.9783   268.1600     0.7676     0.6422
  840   16.780  10348.02     0.7953     0.0147     0.6509     0.1678     1.0708     1.8755   268.4800     0.8023     0.6085
  841   16.800  10348.99     0.7962     0.0144     0.6366     0.1680     1.0660     1.8013   268.8000     0.7972     0.5949
  842   16.820  10349.94     0.7885     0.0146     0.6221     0.1682     1.0517     1.8402   269.1200     0.7826     0.5860
  843   16.840  10350.99     0.7734     0.0154     0.6176     0.1684     1.0305     1.9780   269.4400     0.7610     0.5831
  844   16.860  10351.90     0.7545     0.0162     0.6326     0.1686     1.0193     2.1413   269.7600     0.7495     0.6163
  845   16.880  10352.85     0.7444     0.0166     0.6397     0.1688     1.0108     2.2240   270.0800     0.7407     0.6285
  846   16.900  10353.92     0.7394     0.0172     0.6391     0.1690     1.0077     2.3289   270.4000     0.7373     0.6370
  847   16.920  10354.92     0.7310     0.0173     0.6409     0.1692     1.0007     2.3651   270.7200     0.7300     0.6479
  848   16.940  10355.87     0.7301     0.0174     0.6513     0.1694     1.0008     2.3779   271.0400     0.7297     0.6511
  849   16.960  10356.88     0.7259     0.0180     0.6669     0.1696     1.0037     2.4823   271.3600     0.7323     0.6715
  850   16.980  10357.85     0.7264     0.0181     0.6733     0.1698     1.0098     2.4942   271.6800     0.7381     0.6841
  851   17.000  10358.82     0.7313     0.0182     0.6735     0.1700     1.0131     2.5016   272.0000     0.7411     0.6760
  852   17.020  10359.78     0.7383     0.0187     0.6729     0.1702     1.0223     2.5425   272.3200     0.7500     0.6746
  853   17.040  10360.77     0.7528     0.0184     0.6677     0.1704     1.0333     2.4495   272.6400     0.7607     0.6540
  854   17.060  10361.77     0.7567     0.0189     0.6724     0.1706     1.0387     2.4889   272.9600     0.7658     0.6543
  855   17.080  10362.76     0.7652     0.0197     0.6681     0.1708     1.0450     2.5852   273.2800     0.7717     0.6419
  856   17.100  10363.74     0.7737     0.0199     0.6741     0.1710     1.0564     2.5889   273.6000     0.7828     0.6415
  857   17.120  10364.74     0.7751     0.0201     0.6766     0.1712     1.0596     2.5971   273.9200     0.7857     0.6442
  858   17.140  10365.73     0.7810     0.0206     0.6740     0.1714     1.0638     2.6443   274.2400     0.7896     0.6357
  859   17.160  10366.70     0.7711     0.0205     0.6783     0.1716     1.0559     2.6597   274.5600     0.7814     0.6481
  860   17.180  10367.65     0.7730     0.0201     0.6873     0.1718     1.0597     2.6081   274.8800     0.7848     0.6510
  861   17.200  10368.64     0.7742     0.0208     0.6913     0.1720     1.0643     2.6848   275.2000     0.7891     0.6573
  862   17.220  10369.64     0.7805     0.0210     0.7062     0.1722     1.0756     2.6945   275.5200     0.8001     0.6629
  863   17.240  10370.61     0.7874     0.0211     0.7084     0.1724     1.0838     2.6820   275.8400     0.8079     0.6601
  864   17.260  10371.59     0.7946     0.0214     0.7182     0.1726     1.0950     2.6978   276.1600     0.8188     0.6627
  865   17.280  10372.60     0.8017     0.0213     0.7143     0.1728     1.1022     2.6718   276.4800     0.8257     0.6571
  866   17.300  10373.59     0.8172     0.0217     0.7209     0.1730     1.1182     2.6399   276.8000     0.8414     0.6461
  867   17.320  10374.60     0.8013     0.0220     0.7250     0.1732     1.1055     2.7416   277.1200     0.8283     0.6651
  868   17.340  10375.55     0.8002     0.0214     0.7213     0.1734     1.1043     2.6783   277.4400     0.8269     0.6659
  869   17.360  10376.55     0.7950     0.0224     0.7214     0.1736     1.0986     2.8024   277.7600     0.8208     0.6689
  870   17.380  10377.53     0.7961     0.0221     0.7240     0.1738     1.0999     2.7800   278.0800     0.8218     0.6687
  871   17.400  10378.49     0.7942     0.0217     0.7134     0.1740     1.0972     2.7295   278.4000     0.8188     0.6685
  872   17.420  10379.48     0.7982     0.0215     0.7180     0.1742     1.0993     2.6896   278.7200     0.8206     0.6615
  873   17.440  10380.47     0.8006     0.0221     0.7221     0.1744     1.1038     2.7679   279.0400     0.8247     0.6639
  874   17.460  10381.47     0.8153     0.0248     0.7341     0.1746     1.1224     3.0547   279.3600     0.8430     0.6604
  875   17.480  10382.41     0.8336     0.0272     0.7372     0.1748     1.1445     3.2770   279.6800     0.8648     0.6537
  876   17.500  10383.40     0.9900     0.0261     0.7163     0.1750     1.2940     2.7412   280.0000     1.0140     0.5416
  877   17.520  10384.41     1.3522     0.0248     0.6155     0.1752     1.6347     1.9354   280.3200     1.3544     0.3680
  878   17.540  10385.36     1.4921     0.0215     0.5591     0.1754     1.7273     1.4526   280.6400     1.4467     0.2659
  879   17.560  10386.36     1.6885     0.0228     0.5325     0.1756     1.9207     1.3913   280.9600     1.6397     0.2302
  880   17.580  10387.37     1.6963     0.0263     0.4794     0.1758     1.9077     1.5308   281.2800     1.6264     0.2014
  881   17.600  10388.36     1.4680     0.0295     0.5517     0.1760     1.6831     1.9355   281.6000     1.4015     0.2404
  882   17.620  10389.36     1.3924     0.0296     0.7060     0.1762     1.6684     2.1697   281.9200     1.3865     0.3464
  883   17.640  10390.32     2.1485     0.0251     0.6530     0.1764     2.4483     1.3444   282.2400     2.1661     0.2526
  884   17.660  10391.30     3.5830     0.0218     0.4044     0.1766     3.7917     0.6507   282.5600     3.5091     0.0936
  885   17.680  10392.25     4.8033     0.0207     0.1631     0.1768     4.8999     0.4450   282.8800     4.6170     0.0122
  886   17.700  10393.24     5.2497     0.0239     0.0860     0.1770     5.2924     0.4530   283.2000     5.0092    -0.0150
  887   17.720  10394.26     5.0171     0.0276     0.0901     0.1772     5.0513     0.5399   283.5200     4.7678    -0.0200
  888   17.740  10395.28     4.3958     0.0292     0.1612     0.1774     4.4515     0.6456   283.8400     4.1677    -0.0105
  889   17.760  10396.25     3.6212     0.0253     0.2610     0.1776     3.7133     0.6719   284.1600     3.4291     0.0126
  890   17.780  10397.22     2.8116     0.0241     0.3801     0.1778     2.9531     0.8322   284.4800     2.6686     0.0606
  891   17.800  10398.21     2.2196     0.0251     0.5176     0.1780     2.4174     1.1131   284.8000     2.1326     0.1386
  892   17.820  10399.20     1.8569     0.0247     0.6709     0.1782     2.1148     1.3130   285.1200     1.8297     0.2387
  893   17.840  10400.21     2.2136     0.0265     0.7410     0.1784     2.5240     1.2453   285.4400     2.2386     0.2521
  894   17.860  10401.19     3.4562     0.0274     0.4849     0.1786     3.7104     0.8395   285.7600     3.4246     0.1279
  895   17.880  10402.21     4.6292     0.0308     0.1261     0.1788     4.7232     0.6920   286.0800     4.4371     0.0111
  896   17.900  10403.23     5.3700     0.0311     0.0263     0.1790     5.3912     0.5931   286.4000     5.1048    -0.0251
  897   17.920  10404.21     5.6636     0.0255     0.0476     0.1792     5.6796     0.4846   286.7200     5.3929    -0.0262
  898   17.940  10405.21     5.6173     0.0199     0.0781     0.1794     5.6421     0.3762   287.0400     5.3550    -0.0225
  899   17.960  10406.18     5.3964     0.0143     0.1329     0.1796     5.4456     0.2678   287.3600     5.1582    -0.0121
  900   17.980  10407.17     5.2427     0.0132     0.1416     0.1798     5.2990     0.2507   287.6800     5.0113    -0.0091
  901   18.000  10408.17     5.1674     0.0175     0.1172     0.1800     5.2181     0.3371   288.0000     4.9301    -0.0120
  902   18.020  10417.66     4.6760     0.0240     0.1248     0.1802     4.7273     0.4681   288.3200     4.4390    -0.0132
  903   18.040  10431.05     4.0092     0.0264     0.1323     0.1804     4.0636     0.5145   288.6400     3.7750    -0.0137
  904   18.060  10444.43     3.3423     0.0290     0.1399     0.1806     3.3999     0.5639   288.9600     3.1110    -0.0141
  905   18.080  10454.22     2.6737     0.0263     0.1777     0.1808     2.7400     0.9494   289.2800     2.4507    -0.0091
  906   18.100  10455.23     2.0475     0.0269     0.2488     0.1810     2.1413     1.2794   289.6000     1.8517     0.0232
  907   18.120  10456.24     2.4077     0.0299     0.3388     0.1812     2.5367     1.3719   289.9200     2.2468     0.0558
  908   18.140  10457.22     4.0242     0.0319     0.3500     0.1814     4.1846     0.8765   290.2400     3.8944     0.0523
  909   18.160  10458.22     5.9329     0.0313     0.0856     0.1816     6.0037     0.5605   290.5600     5.7132    -0.0013
  910   18.180  10459.19     7.4944     0.0282     0.0300     0.1818     7.5090     0.3851   290.8800     7.2181    -0.0204
  911   18.200  10460.15     8.4225     0.0217    -0.0241     0.1820     8.4243     0.2601   291.2000     8.1331    -0.0218
  912   18.220  10461.14     9.0674     0.0169    -0.0702     0.1822     9.0413     0.1902   291.5200     8.7498    -0.0279
  913   18.240  10462.17     9.6876     0.0174    -0.1007     0.1824     9.6470     0.1824   291.8400     9.3552    -0.0298
  914   18.260  10463.18    10.1402     0.0175    -0.1118     0.1826    10.0953     0.1749   292.1600     9.8031    -0.0295
  915   18.280  10464.20    10.5832     0.0146    -0.1100     0.1828    10.5353     0.1410   292.4800    10.2428    -0.0290
  916   18.300  10465.16    10.8455     0.0119    -0.1105     0.1830    10.7998     0.1107   292.8000    10.5070    -0.0278
  917   18.320  10466.11    10.9578     0.0117    -0.1036     0.1832    10.9130     0.1066   293.1200    10.6199    -0.0273
  918   18.340  10467.02    10.9605     0.0136    -0.0850     0.1834    10.9206     0.1240   293.4400    10.6272    -0.0262
  919   18.360  10467.94    10.9532     0.0144    -0.0831     0.1836    10.9196     0.1308   293.7600    10.6258    -0.0248
  920   18.380  10468.92    10.8306     0.0147    -0.0851     0.1838    10.7942     0.1349   294.0800    10.5001    -0.0258
  921   18.400  10469.90    10.7131     0.0137    -0.0832     0.1840    10.6774     0.1279   294.4000    10.3830    -0.0259
  922   18.420  10470.94    10.8117     0.0132    -0.0731     0.1842    10.7787     0.1233   294.7200    10.4840    -0.0251
  923   18.440  10471.90    10.9241     0.0140    -0.0675     0.1844    10.8920     0.1287   295.0400    10.5970    -0.0246
  924   18.460  10472.88    11.1035     0.0152    -0.0707     0.1846    11.0775     0.1379   295.3600    10.7821    -0.0229
  925   18.480  10473.80    11.2368     0.0185    -0.0824     0.1848    11.2035     0.1657   295.6800    10.9079    -0.0242
  926   18.500  10474.73    11.3630     0.0185    -0.0844     0.1850    11.3261     0.1634   296.0000    11.0301    -0.0247
  927   18.520  10475.69    11.5931     0.0171    -0.0821     0.1852    11.5594     0.1492   296.3200    11.2631    -0.0236
  928   18.540  10476.60    11.8629     0.0155    -0.0870     0.1854    11.8305     0.1322   296.6400    11.5338    -0.0228
  929   18.560  10477.58    12.1913     0.0124    -0.0863     0.1856    12.1572     0.1030   296.9600    11.8603    -0.0225
  930   18.580  10478.52    12.5103     0.0119    -0.0968     0.1858    12.4699     0.0961   297.2800    12.1726    -0.0232
  931   18.600  10479.44    12.7653     0.0119    -0.1020     0.1860    12.7245     0.0939   297.6000    12.4269    -0.0228
  932   18.620  10480.40    12.9854     0.0089    -0.1119     0.1862    12.9380     0.0691   297.9200    12.6401    -0.0237
  933   18.640  10481.31    13.1679     0.0079    -0.1143     0.1864    13.1201     0.0605   298.2400    12.8219    -0.0234
  934   18.660  10482.22    13.3536     0.0078    -0.1125     0.1866    13.3064     0.0587   298.5600    13.0079    -0.0230
  935   18.680  10483.16    13.3853     0.0077    -0.1126     0.1868    13.3373     0.0571   298.8800    13.0385    -0.0231
  936   18.700  10484.13    13.1219     0.0069    -0.1116     0.1870    13.0758     0.0522   299.2000    12.7766    -0.0232
  937   18.720  10485.08    12.8248     0.0061    -0.0973     0.1872    12.7804     0.0470   299.5200    12.4809    -0.0235
  938   18.740  10485.99    12.4061     0.0061    -0.0926     0.1874    12.3652     0.0485   299.8400    12.0653    -0.0236
  939   18.760  10486.89    12.0255     0.0073    -0.0853     0.1876    11.9888     0.0601   300.1600    11.6886    -0.0235
  940   18.780  10487.80    11.5746     0.0080    -0.0740     0.1878    11.5409     0.0678   300.4800    11.2404    -0.0239
  941   18.800  10488.75    11.0887     0.0070    -0.0625     0.1880    11.0620     0.0617   300.8000    10.7612    -0.0234
  942   18.820  10489.76    10.6715     0.0071    -0.0488     0.1882    10.6489     0.0658   301.1200    10.3477    -0.0234
  943   18.840  10490.73    10.4723     0.0049    -0.0434     0.1884    10.4529     0.0462   301.4400    10.1515    -0.0231
  944   18.860  10491.66    10.3350     0.0043    -0.0265     0.1886    10.3211     0.0418   301.7600    10.0194    -0.0221
  945   18.880  10492.61    10.3891     0.0043     0.0004     0.1888    10.3853     0.0410   302.0800    10.0832    -0.0196
  946   18.900  10493.60    10.4722     0.0052     0.0218     0.1890    10.4802     0.0498   302.4000    10.1778    -0.0167
  947   18.920  10494.56    10.4517     0.0063     0.0252     0.1892    10.4633     0.0606   302.7200    10.1606    -0.0159
  948   18.940  10495.52    10.5376     0.0059     0.0401     0.1894    10.5535     0.0565   303.0400    10.2504    -0.0148
  949   18.960  10496.48    10.8077     0.0048     0.0558     0.1896    10.8291     0.0450   303.3600    10.5257    -0.0132
  950   18.980  10497.43    11.2616     0.0046     0.0536     0.1898    11.2842     0.0421   303.6800    10.9805    -0.0124
  951   19.000  10498.38    11.7738     0.0036     0.0652     0.1900    11.8043     0.0310   304.0000    11.5003    -0.0102
  952   19.020  10499.29    12.2420     0.0027     0.0784     0.1902    12.2717     0.0228   304.3200    11.9673    -0.0100
  953   19.040  10500.21    12.3886     0.0031     0.0763     0.1904    12.4216     0.0248   304.6400    12.1169    -0.0092
  954   19.060  10501.15    12.3573     0.0042     0.0693     0.1906    12.3854     0.0341   304.9600    12.0804    -0.0102
  955   19.080  10502.10    12.2383     0.0040     0.0834     0.1908    12.2707     0.0329   305.2800    11.9654    -0.0095
  956   19.100  10503.06    12.0932     0.0046     0.0913     0.1910    12.1325     0.0380   305.6000    11.8269    -0.0082
  957   19.120  10503.97    12.0625     0.0058     0.1054     0.1912    12.1093     0.0484   305.9200    11.8033    -0.0068
  958   19.140  10504.91    12.1012     0.0058     0.1151     0.1914    12.1507     0.0480   306.2400    11.8445    -0.0062
  959   19.160  10505.84    12.1336     0.0049     0.1162     0.1916    12.1807     0.0406   306.5600    11.8742    -0.0067
  960   19.180  10506.77    12.1516     0.0050     0.1282     0.1918    12.2041     0.0413   306.8800    11.8972    -0.0056
  961   19.200  10507.69    12.0006     0.0052     0.1288     0.1920    12.0551     0.0434   307.2000    11.7479    -0.0053
  962   19.220  10508.69    11.7657     0.0059     0.1430     0.1922    11.8249     0.0501   307.5200    11.5174    -0.0045
  963   19.240  10509.62    11.4745     0.0062     0.1440     0.1924    11.5387     0.0537   307.8400    11.2309    -0.0035
  964   19.260  10510.56    11.1826     0.0064     0.1698     0.1926    11.2502     0.0567   308.1600    10.9420    -0.0029
  965   19.280  10511.53    10.9165     0.0060     0.1632     0.1928    10.9851     0.0546   308.4800    10.6766    -0.0027
  966   19.300  10512.50    10.6058     0.0054     0.1622     0.1930    10.6704     0.0503   308.8000    10.3616    -0.0038
  967   19.320  10513.45    10.4034     0.0063     0.1642     0.1932    10.4702     0.0601   309.1200    10.1611    -0.0034
  968   19.340  10514.37    10.3504     0.0066     0.1706     0.1934    10.4209     0.0638   309.4400    10.1115    -0.0025
  969   19.360  10515.31    10.3769     0.0077     0.1744     0.1936    10.4502     0.0741   309.7600    10.1405    -0.0019
  970   19.380  10516.29    10.4247     0.0063     0.1680     0.1938    10.4965     0.0608   310.0800    10.1864    -0.0023
  971   19.400  10517.30    10.5145     0.0058     0.1714     0.1940    10.5848     0.0554   310.4000    10.2744    -0.0026
  972   19.420  10518.26    10.5777     0.0049     0.1786     0.1942    10.6525     0.0463   310.7200    10.3418    -0.0016
  973   19.440  10519.23    10.7838     0.0054     0.1735     0.1944    10.8572     0.0503   311.0400    10.5462    -0.0019
  974   19.460  10520.18    10.9638     0.0051     0.1748     0.1946    11.0378     0.0465   311.3600    10.7264    -0.0017
  975   19.480  10521.11    11.1845     0.0051     0.1625     0.1948    11.2524     0.0459   311.6800    10.9407    -0.0030
  976   19.500  10522.04    11.2899     0.0054     0.1638     0.1950    11.3592     0.0479   312.0000    11.0472    -0.0027
  977   19.520  10522.96    11.3311     0.0059     0.1681     0.1952    11.3996     0.0523   312.3200    11.0873    -0.0029
  978   19.540  10523.83    11.2778     0.0060     0.1719     0.1954    11.3491     0.0532   312.6400    11.0364    -0.0023
  979   19.560  10524.79    11.1115     0.0062     0.1745     0.1956    11.1844     0.0551   312.9600    10.8714    -0.0020
  980   19.580  10525.74    10.8783     0.0061     0.1881     0.1958    10.9556     0.0551   313.2800    10.6423    -0.0011
  981   19.600  10526.72    10.6142     0.0066     0.1900     0.1960    10.6941     0.0618   313.6000    10.3805    -0.0006
  982   19.620  10527.67    10.2496     0.0058     0.1873     0.1962    10.3268     0.0560   313.9200    10.0128    -0.0012
  983   19.640  10528.57     9.8886     0.0053     0.1818     0.1964     9.9661     0.0527   314.2400     9.6519    -0.0012
  984   19.660  10529.52     9.4791     0.0052     0.1931     0.1966     9.5592     0.0542   314.5600     9.2446    -0.0006
  985   19.680  10530.43     9.2165     0.0042     0.1914     0.1968     9.2965     0.0456   314.8800     8.9817    -0.0007
  986   19.700  10531.39     8.9996     0.0038     0.1925     0.1970     9.0811     0.0423   315.2000     8.7659    -0.0004
  987   19.720  10532.39     8.8053     0.0041     0.1923     0.1972     8.8866     0.0468   315.5200     8.5711    -0.0004
  988   19.740  10533.39     8.7538     0.0049     0.1855     0.1974     8.8324     0.0558   315.8400     8.5165    -0.0012
  989   19.760  10534.39     8.8110     0.0051     0.1795     0.1976     8.8882     0.0583   316.1600     8.5721    -0.0016
  990   19.780  10535.39     9.0274     0.0060     0.1758     0.1978     9.1000     0.0672   316.4800     8.7835    -0.0029
  991   19.800  10536.39     9.3184     0.0060     0.1775     0.1980     9.3935     0.0652   316.8000     9.0767    -0.0021
  992   19.820  10537.35     9.5488     0.0055     0.1765     0.1982     9.6222     0.0581   317.1200     9.3050    -0.0025
  993   19.840  10538.31     9.7027     0.0056     0.1733     0.1984     9.7763     0.0582   317.4400     9.4589    -0.0024
  994   19.860  10539.25     9.7365     0.0061     0.1773     0.1986     9.8109     0.0629   317.7600     9.4932    -0.0023
  995   19.880  10540.18     9.7876     0.0069     0.1738     0.1988     9.8597     0.0707   318.0800     9.5416    -0.0028
  996   19.900  10541.19     9.8298     0.0091     0.1833     0.1990     9.9041     0.0929   318.4000     9.5857    -0.0023
  997   19.920  10542.16     9.8597     0.0115     0.1905     0.1992     9.9379     0.1152   318.7200     9.6192    -0.0013
  998   19.940  10543.15    10.0114     0.0142     0.1958     0.1994    10.0935     0.1397   319.0400     9.7744    -0.0004
  999   19.960  10544.10    10.2599     0.0168     0.1984     0.1996    10.3413     0.1635   319.3600    10.0219    -0.0006
 1000   19.980  10545.05    10.5590     0.0186     0.1972     0.1998    10.6414     0.1764   319.6800    10.3217    -0.0004
 1001   20.000  10546.00    10.8067     0.0179     0.2014     0.2000    10.8897     0.1661   320.0000    10.5697    -0.0002
 1002   20.020  10554.28    10.8676     0.0182     0.2021     0.2002    10.9527     0.1677   320.3200    10.6323     0.0002
 1003   20.040  10570.66    10.9089     0.0172     0.2005     0.2004    10.9934     0.1589   320.6400    10.6727     0.0001
 1004   20.060  10587.04    10.9503     0.0152     0.1994     0.2006    11.0341     0.1401   320.9600    10.7131    -0.0001
 1005   20.080  10592.14    11.0398     0.0125     0.1937     0.2008    11.1232     0.1139   321.2800    10.8019    -0.0002
 1006   20.100  10593.10    11.1963     0.0109     0.1912     0.2010    11.2776     0.0978   321.6000    10.9560    -0.0007
 1007   20.120  10594.00    11.4276     0.0101     0.1880     0.2012    11.5062     0.0886   321.9200    11.1843    -0.0013
 1008   20.140  10594.96    11.6022     0.0101     0.1820     0.2014    11.6812     0.0871   322.2400    11.3589    -0.0012
 1009   20.160  10595.93    11.3396     0.0100     0.1811     0.2016    11.4140     0.0876   322.5600    11.0914    -0.0022
 1010   20.180  10596.88    10.8045     0.0099     0.1847     0.2018    10.8809     0.0911   322.8800    10.5581    -0.0019
 1011   20.200  10597.78    10.1402     0.0101     0.1893     0.2020    10.2187     0.0992   323.2000     9.8955    -0.0015
 1012   20.220  10598.80     9.5457     0.0107     0.1959     0.2022     9.6278     0.1112   323.5200     9.3043    -0.0007
 1013   20.240  10599.83     9.1432     0.0112     0.1994     0.2024     9.2264     0.1219   323.8400     8.9026    -0.0005
 1014   20.260  10600.80     8.9500     0.0104     0.1968     0.2026     9.0323     0.1160   324.1600     8.7082    -0.0008
 1015   20.280  10601.80     8.8509     0.0094     0.1994     0.2028     8.9350     0.1061   324.4800     8.6105    -0.0003
 1016   20.300  10602.82     8.9643     0.0085     0.1988     0.2030     9.0472     0.0949   324.8000     8.7224    -0.0007
 1017   20.320  10603.78     9.2847     0.0076     0.2028     0.2032     9.3698     0.0830   325.1200     9.0447     0.0000
 1018   20.340  10604.79     9.9621     0.0081     0.1975     0.2034    10.0460     0.0836   325.4400     9.7206    -0.0004
 1019   20.360  10605.75    10.8557     0.0087     0.1902     0.2036    10.9368     0.0830   325.7600    10.6110    -0.0010
 1020   20.380  10606.72    11.7331     0.0094     0.1707     0.2038    11.8080     0.0823   326.0800    11.4819    -0.0022
 1021   20.400  10607.63    12.3570     0.0100     0.1689     0.2040    12.4264     0.0820   326.4000    12.1000    -0.0032
 1022   20.420  10608.58    12.5418     0.0117     0.1859     0.2042    12.6182     0.0930   326.7200    12.2915    -0.0018
 1023   20.440  10609.54    12.2923     0.0131     0.1934     0.2044    12.3705     0.1059   327.0400    12.0435    -0.0015
 1024   20.460  10610.49    11.7856     0.0137     0.1939     0.2046    11.8654     0.1145   327.3600    11.5381    -0.0013
 1025   20.480  10611.43    11.1943     0.0141     0.1955     0.2048    11.2774     0.1235   327.6800    10.9497    -0.0006
 1026   20.500  10612.40    10.6900     0.0137     0.1989     0.2050    10.7740     0.1263   328.0000    10.4460    -0.0005
 1027   20.520  10613.35    10.2628     0.0132     0.2004     0.2052    10.3465     0.1275   328.3200    10.0182    -0.0006
 1028   20.540  10614.31     9.9418     0.0121     0.2003     0.2054    10.0255     0.1210   328.6400     9.6969    -0.0006
 1029   20.560  10615.26     9.9033     0.0122     0.2030     0.2056     9.9887     0.1236   328.9600     9.6598    -0.0002
 1030   20.580  10616.26     9.9612     0.0122     0.2050     0.2058    10.0466     0.1227   329.2800     9.7174    -0.0002
 1031   20.600  10617.22    10.1386     0.0125     0.2038     0.2060    10.2245     0.1245   329.6000     9.8949    -0.0002
 1032   20.620  10618.17    10.4460     0.0129     0.2059     0.2062    10.5318     0.1242   329.9200    10.2018    -0.0002
 1033   20.640  10619.17    10.7145     0.0138     0.1989     0.2064    10.7988     0.1301   330.2400    10.4686    -0.0005
 1034   20.660  10620.16    10.9693     0.0134     0.2077     0.2066    11.0545     0.1234   330.5600    10.7240    -0.0004
 1035   20.680  10621.11    11.0995     0.0131     0.2083     0.2068    11.1873     0.1184   330.8800    10.8564     0.0002
 1036   20.700  10622.07    11.1170     0.0138     0.2080     0.2070    11.2044     0.1240   331.2000    10.8732     0.0001
 1037   20.720  10623.02    11.0264     0.0130     0.2072     0.2072    11.1130     0.1172   331.5200    10.7815    -0.0001
 1038   20.740  10623.96    10.7773     0.0124     0.1997     0.2074    10.8617     0.1138   331.8400    10.5299    -0.0006
 1039   20.760  10624.89    10.4524     0.0117     0.2030     0.2076    10.5384     0.1102   332.1600    10.2062    -0.0003
 1040   20.780  10625.83    10.0384     0.0128     0.2073     0.2078    10.1251     0.1263   332.4800     9.7926    -0.0001
 1041   20.800  10626.79     9.6829     0.0116     0.2045     0.2080     9.7693     0.1188   332.8000     9.4365    -0.0002
 1042   20.820  10627.78     9.3801     0.0116     0.2058     0.2082     9.4661     0.1218   333.1200     9.1330    -0.0004
 1043   20.840  10628.79     9.3328     0.0116     0.2070     0.2084     9.4198     0.1257   333.4400     9.0863    -0.0001
 1044   20.860  10629.77     9.5289     0.0092     0.2065     0.2086     9.6156     0.0974   333.7600     9.2819    -0.0002
 1045   20.880  10630.73     9.9707     0.0090     0.2093     0.2088    10.0587     0.0916   334.0800     9.7246     0.0001
 1046   20.900  10631.68    10.4461     0.0088     0.1949     0.2090    10.5298     0.0850   334.4000    10.1954    -0.0009
 1047   20.920  10632.61    10.6977     0.0092     0.1897     0.2092    10.7776     0.0857   334.7200    10.4428    -0.0018
 1048   20.940  10633.60    10.5542     0.0082     0.1614     0.2094    10.6234     0.0768   335.0400    10.2884    -0.0043
 1049   20.960  10634.60    10.0096     0.0085     0.1892     0.2096    10.0865     0.0839   335.3600     9.7511    -0.0027
 1050   20.980  10635.60     9.3597     0.0086     0.1851     0.2098     9.4368     0.0897   335.6800     9.1011    -0.0029
 1051   21.000  10636.56     8.8768     0.0083     0.1861     0.2100     8.9580     0.0932   336.0000     8.6220    -0.0019
 1052   21.020  10637.56     8.6042     0.0076     0.1918     0.2102     8.6844     0.0876   336.3200     8.3480    -0.0023
 1053   21.040  10638.52     8.5362     0.0062     0.1977     0.2104     8.6201     0.0724   336.6400     8.2834    -0.0013
 1054   21.060  10639.47     8.6834     0.0067     0.2014     0.2106     8.7701     0.0768   336.9600     8.4332    -0.0005
 1055   21.080  10640.47     9.0617     0.0073     0.1984     0.2108     9.1448     0.0811   337.2800     8.8076    -0.0015
 1056   21.100  10641.45     9.4135     0.0077     0.2001     0.2110     9.4990     0.0820   337.6000     9.1614    -0.0008
 1057   21.120  10642.45     9.7092     0.0081     0.1988     0.2112     9.7941     0.0842   337.9200     9.4562    -0.0010
 1058   21.140  10643.48     9.8478     0.0091     0.2065     0.2114     9.9356     0.0926   338.2400     9.5973    -0.0003
 1059   21.160  10644.44     9.8068     0.0105     0.2078     0.2116     9.8951     0.1069   338.5600     9.5565    -0.0001
 1060   21.180  10645.40    10.0117     0.0099     0.2008     0.2118    10.0977     0.0991   338.8800     9.7588    -0.0007
 1061   21.200  10646.36    10.1234     0.0097     0.2060     0.2120    10.2091     0.0964   339.2000     9.8699    -0.0008
 1062   21.220  10647.35    10.6351     0.0090     0.1888     0.2122    10.7166     0.0862   339.5200    10.3771    -0.0018
 1063   21.240  10648.28    10.9542     0.0096     0.2042     0.2124    11.0367     0.0877   339.8400    10.6968    -0.0015
 1064   21.260  10649.34    11.0088     0.0093     0.2068     0.2126    11.0935     0.0844   340.1600    10.7534    -0.0010
 1065   21.280  10650.31    10.9428     0.0101     0.2130     0.2128    11.0330     0.0926   340.4800    10.6925     0.0002
 1066   21.300  10651.26    10.8677     0.0110     0.2143     0.2130    10.9571     0.1011   340.8000    10.6163     0.0000
 1067   21.320  10652.22    10.8776     0.0101     0.2138     0.2132    10.9674     0.0924   341.1200    10.6263     0.0001
 1068   21.340  10653.17    10.6559     0.0101     0.2236     0.2134    10.7483     0.0936   341.4400    10.4069     0.0006
 1069   21.360  10654.13    10.4070     0.0092     0.2225     0.2136    10.4984     0.0875   341.7600    10.1567     0.0004
 1070   21.380  10655.11    10.0067     0.0097     0.2282     0.2138    10.1010     0.0961   342.0800     9.7589     0.0011
 1071   21.400  10656.07     9.8688     0.0098     0.2267     0.2140     9.9635     0.0987   342.4000     9.6211     0.0012
 1072   21.420  10657.02     9.7875     0.0100     0.2290     0.2142     9.8837     0.1025   342.7200     9.5409     0.0015
 1073   21.440  10658.03     9.7857     0.0107     0.2287     0.2144     9.8826     0.1087   343.0400     9.5396     0.0017
 1074   21.460  10658.98     9.4922     0.0102     0.2336     0.2146     9.5888     0.1066   343.3600     9.2454     0.0017
 1075   21.480  10659.99     9.2640     0.0103     0.2337     0.2148     9.3617     0.1102   343.6800     9.0180     0.0020
 1076   21.500  10660.99     9.1741     0.0098     0.2334     0.2150     9.2728     0.1063   344.0000     8.9288     0.0022
 1077   21.520  10661.94     9.2111     0.0107     0.2316     0.2152     9.3102     0.1160   344.3200     8.9658     0.0023
 1078   21.540  10662.92     9.1785     0.0114     0.2390     0.2154     9.2786     0.1242   344.6400     8.9339     0.0026
 1079   21.560  10663.87     9.1492     0.0126     0.2378     0.2156     9.2495     0.1379   344.9600     8.9045     0.0026
 1080   21.580  10664.83     8.9981     0.0131     0.2391     0.2158     9.0981     0.1447   345.2800     8.7528     0.0026
 1081   21.600  10665.83     8.7997     0.0163     0.2404     0.2160     8.9005     0.1850   345.6000     8.5549     0.0028
 1082   21.620  10666.87     8.5093     0.0151     0.2405     0.2162     8.6100     0.1759   345.9200     8.2641     0.0028
 1083   21.640  10667.84     8.3675     0.0147     0.2417     0.2164     8.4691     0.1754   346.2400     8.1228     0.0031
 1084   21.660  10668.84     8.2708     0.0133     0.2420     0.2166     8.3725     0.1610   346.5600     8.0260     0.0032
 1085   21.680  10669.83     8.3290     0.0122     0.2443     0.2168     8.4313     0.1467   346.8800     8.0845     0.0033
 1086   21.700  10670.84     8.6297     0.0131     0.2434     0.2170     8.7322     0.1531   347.2000     8.3850     0.0032
 1087   21.720  10671.80     8.9328     0.0134     0.2403     0.2172     9.0340     0.1510   347.5200     8.6865     0.0027
 1088   21.740  10672.76     9.2916     0.0150     0.2313     0.2174     9.3900     0.1635   347.8400     9.0422     0.0019
 1089   21.760  10673.74     9.5597     0.0154     0.2327     0.2176     9.6574     0.1617   348.1600     9.3092     0.0016
 1090   21.780  10674.74     9.8381     0.0157     0.2337     0.2178     9.9359     0.1598   348.4800     9.5874     0.0016
 1091   21.800  10675.70    10.0921     0.0155     0.2379     0.2180    10.1922     0.1551   348.8000     9.8434     0.0021
 1092   21.820  10676.68    10.2022     0.0149     0.2371     0.2182    10.3022     0.1466   349.1200     9.9531     0.0020
 1093   21.840  10677.66    10.1268     0.0150     0.2396     0.2184    10.2268     0.1470   349.4400     9.8773     0.0020
 1094   21.860  10678.62    10.2475     0.0155     0.2405     0.2186    10.3482     0.1528   349.7600     9.9984     0.0021
 1095   21.880  10679.55    10.7600     0.0143     0.2368     0.2188    10.8592     0.1353   350.0800    10.5091     0.0017
 1096   21.900  10680.50    11.1237     0.0150     0.2341     0.2190    11.2220     0.1369   350.4000    10.8716     0.0014
 1097   21.920  10681.46    11.4877                0.2373     0.2192    11.5866              350.7200    11.2359     0.0014
 1098   21.940  10682.42    11.7999                0.2336     0.2194    11.8988              351.0400    11.5477     0.0014
 1099   21.960  10683.37    12.0462                0.2333     0.2196    12.1444              351.3600    11.7930     0.0012
 1100   21.980  10684.29    12.0994                0.2353     0.2198    12.1978              351.6800    11.8461     0.0012
 1101   22.000  10685.21    12.0861                0.2256     0.2200    12.1828              352.0000    11.8308     0.0009
 1102   22.016  10685.94    11.9110                           0.2202    12.0084              352.2527    11.6562     0.0010
 
 
