

 Program UNIPLOT                         version 05.36.02
 _______________
 (c) Fugro Netherlands Marine, Nootdorp, The Netherlands


 ASCII representation of data plotted on a graph.

 This ASCII file presents data interpolated to values per fixed depth interval.
 The data are corrected for the depth-offset differences between the various 
 transducers in the penetrometer.

 The records at the start of penetration may include no values or anomalous
 values where a depth offset implies incomplete penetration of a particular
 sensor into the ground.

 The records at the end of penetration may include no values for data channels
 where the transducer did not reach this depth.

 The reference level for test values is (1) the ground surface for onshore tests and (2) the seafloor for nearshore and offshore tests.

 UNICAS data file          : CPT-2020.000                            
 Output using command file : PlotASCII.cmd

 ASCII file created at : date          :06-May-2022
                         time          :10:32:13
 Project number                        :20024805
 Date of testing                       :28-Apr-2022
 Location                              :Hong Kong Offshore Wind Farm Project
 Test name                             :CPT-2020
 Penetrometer                          :F7.5CKE2HAW2/B/3285
 Serial no                             :1701-3285

 Table description:
 Column ID                             :Parameter name
 ___________________________________________________________________________________
 Rec                                   :Record ID, Record ID [-]
 Depth                                 :Depth, Depth [m]
 Time                                  :Time, Time [s]
 Cone                                  :Cone Resistance, Cone Resistance [MPa]
 Friction                              :Sleeve Friction, Sleeve Friction [MPa]
 Pore 2                                :Porewater Pressure, Porewater Pressure at Shoulder [MPa]
 HydroPress                            :Hydrostatic Pressure, Hydrostatic Pressure [MPa]
 qt                                    :Total Cone Resistance, Total Cone Resistance [MPa]
 Fric_ratio                            :Friction Ratio, Friction Ratio [%]
 SigmaVert                             :Vertical stress, Vertical stress [kPa] as specified in ground model
 Qnet                                  :Net Cone Resistance, Net Cone Resistance [MPa], unit weight as specified in ground model
 Bq                                    :Porewater Pressure Ratio, Porewater Pressure Ratio [-], unit weight as specified in ground model


 Data table:
  Rec    Depth      Time       Cone   Friction     Pore 2 HydroPress         qt Fric_ratio  SigmaVert       Qnet         Bq
   No        m         s        MPa        MPa        MPa        MPa        MPa          %        kPa        MPa          -
    1    0.000   1962.09     0.0000                           0.0000     0.0000                0.0000     0.0000           
    2    0.020   1963.15     0.0051                0.0007     0.0002     0.0053                0.3200     0.0050     0.0566
    3    0.040   1964.19     0.0028                0.0010     0.0004     0.0031                0.6400     0.0025     0.1444
    4    0.060   1965.19     0.0053     0.0005     0.0009     0.0006     0.0057    17.8665     0.9600     0.0047     0.0005
    5    0.080   1966.22     0.0050     0.0004     0.0011     0.0008     0.0054    91.4575     1.2800     0.0041     0.0770
    6    0.100   1967.25     0.0038     0.0004     0.0010     0.0010     0.0043    10.9599     1.6000     0.0027     0.0895
    7    0.120   1968.32     0.0031     0.0003     0.0014     0.0012     0.0036     8.8047     1.9200     0.0017     0.0753
    8    0.140   1969.37     0.0033     0.0003     0.0015     0.0014     0.0040     8.7714     2.2400     0.0017    -0.0109
    9    0.160   1970.39     0.0025     0.0003     0.0016     0.0016     0.0032     8.8834     2.5600     0.0006     0.0555
   10    0.180   1971.43     0.0034     0.0005     0.0020     0.0018     0.0042    19.7416     2.8800     0.0013     0.0542
   11    0.200   1972.42     0.0038     0.0003     0.0025     0.0020     0.0047     8.5243     3.2000     0.0015     0.1778
   12    0.220   1981.72     0.0048     0.0006     0.0027     0.0022     0.0059    12.5603     3.5200     0.0024     0.2085
   13    0.240   2006.39     0.0051     0.0003     0.0028     0.0024     0.0062     7.4499     3.8400     0.0024     0.1686
   14    0.260   2031.07     0.0053     0.0006     0.0029     0.0026     0.0066    12.2240     4.1600     0.0024     0.1287
   15    0.280   2041.22     0.0046     0.0004     0.0030     0.0028     0.0058     8.3242     4.4800     0.0014     0.1873
   16    0.300   2042.25     0.0069     0.0005     0.0034     0.0030     0.0083    10.4660     4.8000     0.0035     0.1492
   17    0.320   2043.26     0.0052     0.0005     0.0033     0.0032     0.0066    11.0799     5.1200     0.0015     0.0360
   18    0.340   2044.27     0.0033     0.0002     0.0037     0.0034     0.0049     6.8863     5.4400    -0.0006    -0.1002
   19    0.360   2045.29     0.0032     0.0006     0.0037     0.0036     0.0048    18.5629     5.7600    -0.0010    -0.1748
   20    0.380   2046.33     0.0052     0.0003     0.0040     0.0038     0.0069     4.9302     6.0800     0.0008     0.5101
   21    0.400   2047.33     0.0058     0.0005     0.0043     0.0040     0.0076     6.1823     6.4000     0.0012    -0.0711
   22    0.420   2048.36     0.0045     0.0005     0.0046     0.0042     0.0063     6.7401     6.7200    -0.0004     0.0797
   23    0.440   2049.35     0.0062     0.0005     0.0047     0.0044     0.0081     7.2979     7.0400     0.0011    -0.3135
   24    0.460   2050.37     0.0059     0.0004     0.0050     0.0046     0.0079     6.7646     7.3600     0.0006           
   25    0.480   2051.34     0.0088     0.0006     0.0053     0.0048     0.0110     6.8641     7.6800     0.0033     0.1159
   26    0.500   2052.36     0.0122     0.0008     0.0053     0.0050     0.0145     8.1994     8.0000     0.0065     0.0682
   27    0.520   2055.34     0.0179     0.0009     0.0049     0.0052     0.0200     6.5724     8.3200     0.0117     0.0073
   28    0.540   2058.92     0.0227     0.0012     0.0044     0.0054     0.0246     8.0789     8.6400     0.0160    -0.0302
   29    0.560   2062.49     0.0275     0.0012     0.0046     0.0056     0.0292     5.6274     8.9600     0.0203    -0.0677
   30    0.580   2063.92     0.0352     0.0017     0.0045     0.0058     0.0371     4.9810     9.2800     0.0279    -0.0388
   31    0.600   2064.94     0.0415     0.0019     0.0032     0.0060     0.0434     4.7145     9.6000     0.0338    -0.0387
   32    0.620   2065.98     0.0463     0.0022    -0.0021     0.0062     0.0455     4.8771     9.9200     0.0356    -0.2234
   33    0.640   2066.99     0.0402     0.0022    -0.0025     0.0064     0.0396     5.5215    10.2400     0.0294    -0.2648
   34    0.660   2068.02     0.0415     0.0023    -0.0011     0.0066     0.0407     5.6814    10.5600     0.0301    -0.2872
   35    0.680   2069.02     0.0345     0.0025    -0.0023     0.0068     0.0331     7.3691    10.8800     0.0223    -0.4534
   36    0.700   2070.01     0.0289     0.0023     0.0017     0.0070     0.0294     8.0292    11.2000     0.0182    -0.3236
   37    0.720   2071.00     0.0230     0.0020     0.0044     0.0072     0.0244     8.5663    11.5200     0.0129    -0.2974
   38    0.740   2072.01     0.0238     0.0022     0.0046     0.0074     0.0255     9.1660    11.8400     0.0136    -0.2425
   39    0.760   2073.03     0.0257     0.0019     0.0085     0.0076     0.0287     7.5415    12.1600     0.0165    -0.0229
   40    0.780   2074.05     0.0284     0.0021     0.0108     0.0078     0.0327     7.4655    12.4800     0.0202     0.1195
   41    0.800   2075.06     0.0236     0.0019     0.0106     0.0080     0.0280     8.1023    12.8000     0.0152     0.1584
   42    0.820   2076.06     0.0284     0.0019     0.0090     0.0082     0.0325     6.7042    13.1200     0.0193     0.0762
   43    0.840   2077.07     0.0309     0.0019     0.0082     0.0084     0.0346     6.0227    13.4400     0.0212     0.0186
   44    0.860   2078.08     0.0279     0.0020     0.0085     0.0086     0.0313     7.1427    13.7600     0.0176    -0.0191
   45    0.880   2079.08     0.0287     0.0019     0.0106     0.0088     0.0330     6.6581    14.0800     0.0189     0.0694
   46    0.900   2080.09     0.0344     0.0021     0.0125     0.0090     0.0391     6.5652    14.4000     0.0247     0.0960
   47    0.920   2081.11     0.0293     0.0022     0.0134     0.0092     0.0350     7.2675    14.7200     0.0203     0.2185
   48    0.940   2082.14     0.0306     0.0021     0.0131     0.0094     0.0360     7.0201    15.0400     0.0210     0.1606
   49    0.960   2083.15     0.0475     0.0023     0.0134     0.0096     0.0532     5.0280    15.3600     0.0378     0.1070
   50    0.980   2084.13     0.0965     0.0026     0.0114     0.0098     0.1018     4.0543    15.6800     0.0862     0.0348
   51    1.000   2085.16     0.1531     0.0027     0.0080     0.0100     0.1575     1.7407    16.0000     0.1415     0.0043
   52    1.020   2086.18     0.1394     0.0025     0.0036     0.0102     0.1412     1.7556    16.3200     0.1249    -0.0474
   53    1.040   2087.18     0.1171     0.0023     0.0047     0.0104     0.1189     1.9958    16.6400     0.1022    -0.0599
   54    1.060   2088.18     0.0964     0.0021     0.0056     0.0106     0.0985     1.9723    16.9600     0.0816    -0.0682
   55    1.080   2089.21     0.0775     0.0017     0.0040     0.0108     0.0798     2.0526    17.2800     0.0625    -0.0859
   56    1.100   2090.25     0.0600     0.0018     0.0067     0.0110     0.0626     2.9845    17.6000     0.0450    -0.1088
   57    1.120   2091.24     0.0478     0.0020     0.0084     0.0112     0.0511     3.7265    17.9200     0.0332    -0.1002
   58    1.140   2092.25     0.0369     0.0017     0.0114     0.0114     0.0409     4.4281    18.2400     0.0227    -0.0758
   59    1.160   2093.28     0.0347     0.0014     0.0144     0.0116     0.0404     4.2200    18.5600     0.0218     0.0840
   60    1.180   2094.29     0.0442     0.0015     0.0168     0.0118     0.0510     3.7195    18.8800     0.0321     0.1598
   61    1.200   2095.29     0.1164     0.0014     0.0153     0.0120     0.1230     1.2378    19.2000     0.1038     0.0367
   62    1.220   2096.33     0.1608     0.0017     0.0141     0.0122     0.1669     1.1147    19.5200     0.1473     0.0156
   63    1.240   2097.33     0.1821     0.0016     0.0149     0.0124     0.1882     0.8658    19.8400     0.1683     0.0123
   64    1.260   2098.33     0.1717     0.0028     0.0172     0.0126     0.1787     1.6471    20.1600     0.1586     0.0271
   65    1.280   2099.33     0.1626     0.0042     0.0159     0.0128     0.1688     2.5686    20.4800     0.1483     0.0121
   66    1.300   2100.33     0.1666     0.0049     0.0162     0.0130     0.1735     2.9608    20.8000     0.1527     0.0223
   67    1.320   2101.33     0.1953     0.0046     0.0162     0.0132     0.2020     2.3736    21.1200     0.1809     0.0152
   68    1.340   2102.38     0.1955     0.0049     0.0134     0.0134     0.2010     2.5335    21.4400     0.1796    -0.0015
   69    1.360   2103.38     0.1369     0.0048     0.0130     0.0136     0.1408     3.5781    21.7600     0.1191    -0.0323
   70    1.380   2104.40     0.1184     0.0048     0.0181     0.0138     0.1256     4.0735    22.0800     0.1035     0.0323
   71    1.400   2105.37     0.1484     0.0044     0.0190     0.0140     0.1563     2.9560    22.4000     0.1339     0.0372
   72    1.420   2106.42     0.1552     0.0041     0.0176     0.0142     0.1628     2.5792    22.7200     0.1401     0.0290
   73    1.440   2107.45     0.1211     0.0042     0.0215     0.0144     0.1297     3.4591    23.0400     0.1067     0.0578
   74    1.460   2108.44     0.1041     0.0051     0.0163     0.0146     0.1124     4.6975    23.3600     0.0890     0.0593
   75    1.480   2109.45     0.1126     0.0050     0.0107     0.0148     0.1175     4.6582    23.6800     0.0938    -0.0345
   76    1.500   2110.50     0.0894     0.0050     0.0083     0.0150     0.0926     6.2923    24.0000     0.0686    -0.1053
   77    1.520   2111.52     0.0888     0.0049     0.0176     0.0152     0.0961     5.4887    24.3200     0.0718     0.0303
   78    1.540   2112.53     0.0783     0.0041     0.0175     0.0154     0.0857     5.0920    24.6400     0.0611     0.0378
   79    1.560   2113.56     0.0750     0.0042     0.0200     0.0156     0.0829     5.5856    24.9600     0.0579     0.0561
   80    1.580   2114.55     0.0681     0.0036     0.0259     0.0158     0.0782     4.7038    25.2800     0.0529     0.1589
   81    1.600   2115.55     0.0566     0.0037     0.0317     0.0160     0.0690     6.4981    25.6000     0.0434     0.3099
   82    1.620   2116.55     0.0513     0.0037     0.0343     0.0162     0.0654     7.2745    25.9200     0.0395     0.4444
   83    1.640   2117.61     0.0514     0.0035     0.0361     0.0164     0.0662     6.8812    26.2400     0.0400     0.4747
   84    1.660   2118.61     0.0476     0.0032     0.0380     0.0166     0.0634     6.5887    26.5600     0.0368     0.5693
   85    1.680   2119.60     0.0489     0.0033     0.0384     0.0168     0.0650     7.1036    26.8800     0.0381     0.5691
   86    1.700   2120.62     0.0495     0.0031     0.0399     0.0170     0.0661     6.0690    27.2000     0.0389     0.5771
   87    1.720   2121.58     0.0507     0.0033     0.0398     0.0172     0.0671     6.1653    27.5200     0.0396     0.5542
   88    1.740   2122.63     0.0493     0.0030     0.0432     0.0174     0.0669     6.0759    27.8400     0.0391     0.6256
   89    1.760   2123.63     0.0514     0.0030     0.0452     0.0176     0.0700     5.9040    28.1600     0.0418     0.6404
   90    1.780   2124.64     0.0506     0.0037     0.0473     0.0178     0.0703     7.2234    28.4800     0.0418     0.6951
   91    1.800   2125.66     0.0509     0.0037     0.0488     0.0180     0.0711     7.3390    28.8000     0.0423     0.7122
   92    1.820   2126.69     0.0524     0.0030     0.0506     0.0182     0.0734     5.7147    29.1200     0.0443     0.7219
   93    1.840   2127.67     0.0548     0.0031     0.0480     0.0184     0.0755     5.6984    29.4400     0.0461     0.6714
   94    1.860   2128.66     0.0526     0.0031     0.0506     0.0186     0.0733     5.9504    29.7600     0.0436     0.7049
   95    1.880   2129.69     0.0543     0.0034     0.0492     0.0188     0.0747     6.1784    30.0800     0.0446     0.6644
   96    1.900   2130.71     0.0542     0.0035     0.0507     0.0190     0.0755     6.4864    30.4000     0.0451     0.7019
   97    1.920   2131.72     0.0563     0.0033     0.0510     0.0192     0.0779     5.9451    30.7200     0.0472     0.6824
   98    1.940   2132.73     0.0604     0.0033     0.0537     0.0194     0.0829     5.5248    31.0400     0.0518     0.6578
   99    1.960   2133.72     0.0593     0.0033     0.0545     0.0196     0.0823     5.6266    31.3600     0.0509     0.6906
  100    1.980   2134.74     0.0630     0.0038     0.0554     0.0198     0.0858     6.0830    31.6800     0.0541     0.6389
  101    2.000   2135.74     0.0655     0.0038     0.0576     0.0200     0.0893     5.8632    32.0000     0.0573     0.6413
  102    2.020   2136.76     0.0640     0.0039     0.0573     0.0202     0.0880     6.1445    32.3200     0.0556     0.6638
  103    2.040   2137.78     0.0615     0.0040     0.0556     0.0204     0.0853     6.4707    32.6400     0.0527     0.6916
  104    2.060   2138.81     0.0608     0.0039     0.0573     0.0206     0.0848     6.5051    32.9600     0.0518     0.7068
  105    2.080   2139.84     0.0574     0.0036     0.0592     0.0208     0.0819     6.2062    33.2800     0.0486     0.7737
  106    2.100   2140.85     0.0554     0.0033     0.0621     0.0210     0.0809     5.9558    33.6000     0.0473     0.8407
  107    2.120   2141.83     0.0567     0.0031     0.0641     0.0212     0.0834     5.5755    33.9200     0.0495     0.8557
  108    2.140   2142.83     0.0567     0.0029     0.0661     0.0214     0.0843     5.1952    34.2400     0.0500     0.8861
  109    2.160   2143.84     0.0575     0.0032     0.0660     0.0216     0.0854     5.6055    34.5600     0.0509     0.8833
  110    2.180   2144.88     0.0629     0.0035     0.0619     0.0218     0.0892     5.6530    34.8800     0.0543     0.7528
  111    2.200   2145.90     0.0641     0.0033     0.0629     0.0220     0.0903     5.1182    35.2000     0.0551     0.7308
  112    2.220   2157.14     0.0657     0.0032     0.0640     0.0222     0.0924     4.9032    35.5200     0.0569     0.7281
  113    2.240   2170.76     0.0673     0.0037     0.0650     0.0224     0.0945     5.8056    35.8400     0.0586     0.7208
  114    2.260   2177.18     0.0705     0.0035     0.0656     0.0226     0.0980     4.9320    36.1600     0.0618     0.6943
  115    2.280   2178.14     0.0702     0.0032     0.0683     0.0228     0.0987     4.6016    36.4800     0.0622     0.7237
  116    2.300   2179.20     0.0794     0.0037     0.0648     0.0230     0.1075     4.6232    36.8000     0.0707     0.6210
  117    2.320   2180.21     0.0819     0.0033     0.0678     0.0232     0.1105     4.1235    37.1200     0.0734     0.6119
  118    2.340   2181.19     0.0807     0.0039     0.0655     0.0234     0.1082     4.8822    37.4400     0.0708     0.5939
  119    2.360   2182.15     0.0803     0.0041     0.0634     0.0236     0.1072     5.0917    37.7600     0.0694     0.5834
  120    2.380   2183.18     0.0815     0.0041     0.0667     0.0238     0.1095     4.9906    38.0800     0.0714     0.6007
  121    2.400   2184.16     0.0877     0.0038     0.0679     0.0240     0.1168     4.3352    38.4000     0.0784     0.5774
  122    2.420   2185.23     0.0941     0.0039     0.0695     0.0242     0.1232     4.1608    38.7200     0.0844     0.5339
  123    2.440   2186.24     0.0906     0.0040     0.0664     0.0244     0.1185     4.4290    39.0400     0.0794     0.5301
  124    2.460   2187.27     0.0947     0.0040     0.0669     0.0246     0.1229     4.1965    39.3600     0.0836     0.5099
  125    2.480   2188.26     0.0889     0.0036     0.0699     0.0248     0.1181     4.0667    39.6800     0.0785     0.5719
  126    2.500   2189.27     0.0885     0.0037     0.0682     0.0250     0.1175     4.1915    40.0000     0.0775     0.5688
  127    2.520   2190.28     0.0880     0.0039     0.0696     0.0252     0.1170     4.4622    40.3200     0.0767     0.5727
  128    2.540   2191.30     0.0892     0.0038     0.0717     0.0254     0.1190     4.3075    40.6400     0.0784     0.5816
  129    2.560   2192.34     0.0904     0.0039     0.0754     0.0256     0.1211     4.2668    40.9600     0.0802     0.5950
  130    2.580   2193.34     0.0881     0.0039     0.0768     0.0258     0.1202     4.4129    41.2800     0.0789     0.6407
  131    2.600   2194.28     0.0882     0.0041     0.0805     0.0260     0.1215     4.6110    41.6000     0.0799     0.6688
  132    2.620   2195.29     0.0910     0.0041     0.0757     0.0262     0.1239     4.4800    41.9200     0.0820     0.6339
  133    2.640   2196.35     0.0930     0.0039     0.0725     0.0264     0.1239     4.2634    42.2400     0.0817     0.5793
  134    2.660   2197.36     0.1054     0.0038     0.0710     0.0266     0.1359     3.6504    42.5600     0.0933     0.4947
  135    2.680   2198.37     0.1028     0.0043     0.0680     0.0268     0.1317     4.1947    42.8800     0.0888     0.4743
  136    2.700   2199.37     0.0974     0.0046     0.0697     0.0270     0.1268     4.6980    43.2000     0.0836     0.5141
  137    2.720   2200.34     0.1032     0.0048     0.0650     0.0272     0.1316     4.6331    43.5200     0.0881     0.4573
  138    2.740   2201.35     0.1078     0.0056     0.0676     0.0274     0.1355     5.2670    43.8400     0.0917     0.4203
  139    2.760   2202.40     0.1221     0.0057     0.0606     0.0276     0.1489     4.7224    44.1600     0.1047     0.3489
  140    2.780   2203.41     0.1691     0.0061     0.0592     0.0278     0.1939     3.7005    44.4800     0.1494     0.2095
  141    2.800   2204.41     0.2828     0.0074     0.0506     0.0280     0.3050     2.6778    44.8000     0.2602     0.0979
  142    2.820   2205.39     0.3951     0.0075     0.0386     0.0282     0.4147     2.2886    45.1200     0.3696     0.0522
  143    2.840   2206.41     0.4832     0.0077     0.0240     0.0284     0.4948     1.6058    45.4400     0.4493    -0.0018
  144    2.860   2207.42     0.4828     0.0073     0.0198     0.0286     0.4911     1.4971    45.7600     0.4454    -0.0197
  145    2.880   2208.48     0.3916     0.0066     0.0328     0.0288     0.4035     1.6481    46.0800     0.3574    -0.0002
  146    2.900   2209.47     0.2623     0.0068     0.0448     0.0290     0.2790     2.4897    46.4000     0.2326     0.0482
  147    2.920   2210.50     0.1997     0.0066     0.0584     0.0292     0.2228     3.2790    46.7200     0.1761     0.1471
  148    2.940   2211.45     0.2024     0.0062     0.0589     0.0294     0.2274     3.1378    47.0400     0.1804     0.1678
  149    2.960   2212.44     0.2119     0.0058     0.0572     0.0296     0.2360     2.8014    47.3600     0.1886     0.1470
  150    2.980   2213.46     0.2516     0.0061     0.0511     0.0298     0.2743     2.6667    47.6800     0.2266     0.1077
  151    3.000   2214.51     0.3055     0.0072     0.0531     0.0300     0.3277     2.4526    48.0000     0.2797     0.0810
  152    3.020   2215.52     0.2921     0.0069     0.0512     0.0302     0.3133     2.3300    48.3200     0.2650     0.0769
  153    3.040   2216.55     0.2493     0.0064     0.0548     0.0304     0.2714     2.5302    48.6400     0.2228     0.1004
  154    3.060   2217.58     0.2867     0.0062     0.0515     0.0306     0.3101     2.2116    48.9600     0.2612     0.0962
  155    3.080   2218.57     0.3705     0.0058     0.0318     0.0308     0.3866     1.5714    49.2800     0.3373     0.0228
  156    3.100   2219.62     0.3953     0.0052     0.0304     0.0310     0.4093     1.3221    49.6000     0.3597     0.0068
  157    3.120   2220.57     0.4505     0.0046     0.0283     0.0312     0.4610     1.0330    49.9200     0.4110    -0.0152
  158    3.140   2221.57     0.3494     0.0039     0.0401     0.0314     0.3655     1.1017    50.2400     0.3152     0.0216
  159    3.160   2222.60     0.3281     0.0036     0.0450     0.0316     0.3473     1.0999    50.5600     0.2967     0.0476
  160    3.180   2223.63     0.3131     0.0038     0.0499     0.0318     0.3328     1.1970    50.8800     0.2819     0.0532
  161    3.200   2224.66     0.2909     0.0031     0.0549     0.0320     0.3129     1.0752    51.2000     0.2617     0.0778
  162    3.220   2225.69     0.2638     0.0033     0.0627     0.0322     0.2890     1.2224    51.5200     0.2375     0.1173
  163    3.240   2226.65     0.2647     0.0027     0.0638     0.0324     0.2911     1.0013    51.8400     0.2393     0.1273
  164    3.260   2227.68     0.2451     0.0029     0.0676     0.0326     0.2736     1.1703    52.1600     0.2215     0.1592
  165    3.280   2228.63     0.2581     0.0030     0.0651     0.0328     0.2861     1.1923    52.4800     0.2337     0.1458
  166    3.300   2229.67     0.2488     0.0030     0.0653     0.0330     0.2768     1.1796    52.8000     0.2240     0.1502
  167    3.320   2230.74     0.2674     0.0033     0.0610     0.0332     0.2930     1.2542    53.1200     0.2399     0.1161
  168    3.340   2231.70     0.2735     0.0033     0.0614     0.0334     0.2989     1.2120    53.4400     0.2454     0.1101
  169    3.360   2232.67     0.2543     0.0028     0.0614     0.0336     0.2798     1.0463    53.7600     0.2261     0.1202
  170    3.380   2233.67     0.2214     0.0028     0.0647     0.0338     0.2484     1.2659    54.0800     0.1943     0.1571
  171    3.400   2234.57     0.2165     0.0028     0.0705     0.0340     0.2454     1.2725    54.4000     0.1910     0.1825
  172    3.420   2235.54     0.1785     0.0031     0.0741     0.0342     0.2092     1.7251    54.7200     0.1545     0.2522
  173    3.440   2236.53     0.1599     0.0030     0.0821     0.0344     0.1928     1.8526    55.0400     0.1377     0.3190
  174    3.460   2237.53     0.1450     0.0029     0.0897     0.0346     0.1820     1.9297    55.3600     0.1267     0.4230
  175    3.480   2238.57     0.1617     0.0031     0.0889     0.0348     0.1992     1.9608    55.6800     0.1436     0.3799
  176    3.500   2239.66     0.1714     0.0036     0.0822     0.0350     0.2076     2.1139    56.0000     0.1516     0.3374
  177    3.520   2240.62     0.1781     0.0038     0.0780     0.0352     0.2110     2.1602    56.3200     0.1547     0.2795
  178    3.540   2241.64     0.1655     0.0042     0.0750     0.0354     0.1973     2.5151    56.6400     0.1406     0.2863
  179    3.560   2242.65     0.1460     0.0041     0.0733     0.0356     0.1771     2.6511    56.9600     0.1201     0.3186
  180    3.580   2243.65     0.1381     0.0041     0.0730     0.0358     0.1685     2.8606    57.2800     0.1112     0.3285
  181    3.600   2244.66     0.1521     0.0036     0.0769     0.0360     0.1841     2.4239    57.6000     0.1265     0.3184
  182    3.620   2245.69     0.1682     0.0040     0.0814     0.0362     0.2018     2.3633    57.9200     0.1439     0.3046
  183    3.640   2246.65     0.1826     0.0040     0.0844     0.0364     0.2179     2.2072    58.2400     0.1597     0.2985
  184    3.660   2247.49     0.1925     0.0035     0.0858     0.0366     0.2285     1.8711    58.5600     0.1699     0.2882
  185    3.680   2248.33     0.2102     0.0038     0.0847     0.0368     0.2460     1.8421    58.8800     0.1871     0.2590
  186    3.700   2249.19     0.2276     0.0034     0.0831     0.0370     0.2629     1.4868    59.2000     0.2037     0.2311
  187    3.720   2250.18     0.2378     0.0032     0.0795     0.0372     0.2713     1.3437    59.5200     0.2118     0.2014
  188    3.740   2251.16     0.2529     0.0034     0.0749     0.0374     0.2842     1.3673    59.8400     0.2244     0.1655
  189    3.760   2252.19     0.2546     0.0030     0.0717     0.0376     0.2855     1.1903    60.1600     0.2253     0.1602
  190    3.780   2253.21     0.2491     0.0035     0.0771     0.0378     0.2799     1.3701    60.4800     0.2194     0.1629
  191    3.800   2254.22     0.2094     0.0041     0.0917     0.0380     0.2451     1.9196    60.8000     0.1843     0.2574
  192    3.820   2255.25     0.1889     0.0042     0.1014     0.0382     0.2307     2.2612    61.1200     0.1696     0.3618
  193    3.840   2256.21     0.2147     0.0044     0.0957     0.0384     0.2572     2.0488    61.4400     0.1958     0.3214
  194    3.860   2257.19     0.2410     0.0038     0.0930     0.0386     0.2815     1.5781    61.7600     0.2198     0.2639
  195    3.880   2258.19     0.3031     0.0035     0.0849     0.0388     0.3391     1.1841    62.0800     0.2771     0.1703
  196    3.900   2259.23     0.3555     0.0034     0.0735     0.0390     0.3891     0.9597    62.4000     0.3267     0.1256
  197    3.920   2260.24     0.4159     0.0031     0.0630     0.0392     0.4423     0.7550    62.7200     0.3796     0.0625
  198    3.940   2261.25     0.4208     0.0035     0.0647     0.0394     0.4490     0.8328    63.0400     0.3859     0.0716
  199    3.960   2262.23     0.3883     0.0030     0.0671     0.0396     0.4165     0.7770    63.3600     0.3531     0.0779
  200    3.980   2263.22     0.3522     0.0033     0.0820     0.0398     0.3858     0.8574    63.6800     0.3221     0.1249
  201    4.000   2264.22     0.3118     0.0033     0.0929     0.0400     0.3493     1.0643    64.0000     0.2853     0.1728
  202    4.020   2265.27     0.2985     0.0034     0.0995     0.0402     0.3398     1.1284    64.3200     0.2754     0.2105
  203    4.040   2266.30     0.3214     0.0033     0.0926     0.0404     0.3615     1.0475    64.6400     0.2969     0.1859
  204    4.060   2267.29     0.3399     0.0035     0.0795     0.0406     0.3748     1.0299    64.9600     0.3098     0.1370
  205    4.080   2268.31     0.3423     0.0034     0.0800     0.0408     0.3756     1.0019    65.2800     0.3103     0.1241
  206    4.100   2269.28     0.3202     0.0040     0.0886     0.0410     0.3557     1.2469    65.6000     0.2901     0.1497
  207    4.120   2270.26     0.3161     0.0036     0.0918     0.0412     0.3551     1.1311    65.9200     0.2892     0.1787
  208    4.140   2271.25     0.3336     0.0039     0.0965     0.0414     0.3735     1.1905    66.2400     0.3073     0.1741
  209    4.160   2272.28     0.3194     0.0040     0.1066     0.0416     0.3628     1.2198    66.5600     0.2962     0.2083
  210    4.180   2273.33     0.3257     0.0040     0.1025     0.0418     0.3682     1.2641    66.8800     0.3013     0.1967
  211    4.200   2274.33     0.3858     0.0035     0.1001     0.0420     0.4294     0.9208    67.2000     0.3622     0.1711
  212    4.220   2275.42     0.5098     0.0033     0.0684     0.0422     0.5418     0.7210    67.5200     0.4743     0.0724
  213    4.240   2297.47     0.7331     0.0034     0.0466     0.0424     0.7559     0.6261    67.8400     0.6880     0.0293
  214    4.260   2322.59     0.9576     0.0027     0.0284     0.0426     0.9712     0.4212    68.1600     0.9030    -0.0077
  215    4.280   2328.88     1.0712     0.0026     0.0325     0.0428     1.0847     0.2507    68.4800     1.0162    -0.0105
  216    4.300   2329.86     1.1453     0.0021     0.0367     0.0430     1.1596     0.1856    68.8000     1.0908    -0.0082
  217    4.320   2330.90     1.1839     0.0020     0.0436     0.0432     1.2009     0.1720    69.1200     1.1318    -0.0022
  218    4.340   2331.90     1.2524     0.0017     0.0524     0.0434     1.2735     0.1382    69.4400     1.2040     0.0056
  219    4.360   2332.91     1.3298     0.0015     0.0605     0.0436     1.3542     0.1167    69.7600     1.2844     0.0112
  220    4.380   2333.91     1.4175     0.0017     0.0649     0.0438     1.4440     0.1197    70.0800     1.3739     0.0141
  221    4.400   2334.88     1.4667     0.0019     0.0649     0.0440     1.4941     0.1324    70.4000     1.4237     0.0149
  222    4.420   2335.86     1.5108     0.0019     0.0653     0.0442     1.5381     0.1248    70.7200     1.4674     0.0142
  223    4.440   2336.86     1.5808     0.0024     0.0668     0.0444     1.6085     0.1532    71.0400     1.5375     0.0139
  224    4.460   2337.90     1.6294     0.0034     0.0679     0.0446     1.6576     0.2055    71.3600     1.5862     0.0142
  225    4.480   2338.91     1.6650     0.0043     0.0702     0.0448     1.6944     0.2578    71.6800     1.6227     0.0155
  226    4.500   2339.89     1.6779     0.0043     0.0713     0.0450     1.7073     0.2548    72.0000     1.6353     0.0153
  227    4.520   2340.87     1.7137     0.0042     0.0722     0.0452     1.7443     0.2463    72.3200     1.6720     0.0165
  228    4.540   2346.14     1.7631     0.0038     0.0689     0.0454     1.7927     0.2193    72.6400     1.7201     0.0147
  229    4.560   2361.66     1.8523     0.0032     0.0642     0.0456     1.8800     0.1814    72.9600     1.8070     0.0115
  230    4.580   2377.18     1.9415     0.0032     0.0596     0.0458     1.9672     0.1802    73.2800     1.8939     0.0083
  231    4.600   2385.91     2.0099     0.0034     0.0596     0.0460     2.0347     0.1693    73.6000     1.9611     0.0067
  232    4.620   2386.57     2.0655     0.0038     0.0621     0.0462     2.0913     0.1840    73.9200     2.0174     0.0076
  233    4.640   2387.20     2.1161     0.0038     0.0645     0.0464     2.1425     0.1809    74.2400     2.0683     0.0080
  234    4.660   2387.83     2.1648     0.0034     0.0663     0.0466     2.1925     0.1552    74.5600     2.1180     0.0092
  235    4.680   2388.45     2.2148     0.0036     0.0673     0.0468     2.2429     0.1609    74.8800     2.1680     0.0093
  236    4.700   2389.11     2.3027     0.0043     0.0677     0.0470     2.3313     0.1854    75.2000     2.2561     0.0094
  237    4.720   2389.75     2.3868     0.0041     0.0677     0.0472     2.4151     0.1741    75.5200     2.3396     0.0086
  238    4.740   2390.42     2.4582     0.0045     0.0688     0.0474     2.4869     0.1807    75.8400     2.4111     0.0087
  239    4.760   2391.03     2.5491     0.0055     0.0671     0.0476     2.5774     0.2165    76.1600     2.5013     0.0079
  240    4.780   2391.69     2.6209     0.0066     0.0686     0.0478     2.6492     0.2524    76.4800     2.5727     0.0075
  241    4.800   2392.32     2.6372     0.0077     0.0706     0.0480     2.6668     0.2944    76.8000     2.5900     0.0086
  242    4.820   2392.97     2.6953     0.0078     0.0731     0.0482     2.7258     0.2928    77.1200     2.6487     0.0092
  243    4.840   2393.63     2.7749     0.0073     0.0708     0.0484     2.8053     0.2679    77.4400     2.7279     0.0088
  244    4.860   2406.90     2.9709     0.0069     0.0654     0.0486     2.9992     0.2494    77.7600     2.9214     0.0066
  245    4.880   2420.63     3.1712     0.0072     0.0599     0.0488     3.1972     0.2593    78.0800     3.1191     0.0044
  246    4.900   2432.77     3.3660     0.0073     0.0592     0.0490     3.3902     0.2470    78.4000     3.3118     0.0026
  247    4.920   2433.82     3.4748     0.0084     0.0589     0.0492     3.4996     0.2429    78.7200     3.4208     0.0028
  248    4.940   2434.82     3.5141     0.0096     0.0600     0.0494     3.5384     0.2730    79.0400     3.4593     0.0024
  249    4.960   2435.80     3.5381     0.0100     0.0600     0.0496     3.5641     0.2833    79.3600     3.4847     0.0035
  250    4.980   2436.82     3.5674     0.0102     0.0629     0.0498     3.5935     0.2883    79.6800     3.5138     0.0035
  251    5.000   2437.89     3.6331     0.0103     0.0611     0.0500     3.6590     0.2845    80.0000     3.5790     0.0033
  252    5.020   2438.91     3.6988     0.0104     0.0617     0.0502     3.7246     0.2817    80.3200     3.6442     0.0030
  253    5.040   2439.94     3.7949     0.0110     0.0615     0.0504     3.8209     0.2917    80.6400     3.7403     0.0031
  254    5.060   2440.91     3.9082     0.0113     0.0610     0.0506     3.9339     0.2900    80.9600     3.8529     0.0027
  255    5.080   2441.94     4.0193     0.0121     0.0603     0.0508     4.0446     0.3022    81.2800     3.9633     0.0024
  256    5.100   2442.98     4.0560     0.0122     0.0604     0.0510     4.0814     0.3021    81.6000     3.9998     0.0024
  257    5.120   2443.99     4.1002     0.0133     0.0581     0.0512     4.1248     0.3262    81.9200     4.0429     0.0018
  258    5.140   2445.02     4.1357     0.0132     0.0609     0.0514     4.1612     0.3204    82.2400     4.0790     0.0023
  259    5.160   2446.04     4.2061     0.0133     0.0600     0.0516     4.2313     0.3195    82.5600     4.1487     0.0020
  260    5.180   2447.04     4.2408     0.0138     0.0603     0.0518     4.2661     0.3253    82.8800     4.1833     0.0020
  261    5.200   2448.10     4.2989     0.0140     0.0608     0.0520     4.3240     0.3283    83.2000     4.2408     0.0019
  262    5.220   2449.13     4.4069     0.0131     0.0607     0.0522     4.4329     0.2971    83.5200     4.3494     0.0023
  263    5.240   2450.11     4.4961     0.0128     0.0596     0.0524     4.5212     0.2865    83.8400     4.4374     0.0017
  264    5.260   2451.17     4.6119     0.0126     0.0579     0.0526     4.6370     0.2753    84.1600     4.5528     0.0016
  265    5.280   2452.14     4.6130     0.0127     0.0589     0.0528     4.6384     0.2750    84.4800     4.5539     0.0017
  266    5.300   2453.20     4.7218     0.0135     0.0587     0.0530     4.7461     0.2895    84.8000     4.6613     0.0010
  267    5.320   2454.21     4.7248     0.0143     0.0569     0.0532     4.7491     0.3033    85.1200     4.6640     0.0010
  268    5.340   2455.24     4.7705     0.0147     0.0545     0.0534     4.7942     0.3086    85.4400     4.7087     0.0006
  269    5.360   2456.30     4.8007     0.0151     0.0563     0.0536     4.8240     0.3143    85.7600     4.7382     0.0004
  270    5.380   2457.29     4.8099     0.0152     0.0609     0.0538     4.8349     0.3163    86.0800     4.7489     0.0012
  271    5.400   2458.31     4.7915     0.0151     0.0621     0.0540     4.8173     0.3152    86.4000     4.7309     0.0016
  272    5.420   2459.36     4.7881     0.0144     0.0605     0.0542     4.8135     0.3010    86.7200     4.7268     0.0013
  273    5.440   2460.37     4.8346     0.0146     0.0624     0.0544     4.8605     0.3030    87.0400     4.7735     0.0015
  274    5.460   2461.37     4.9172     0.0143     0.0619     0.0546     4.9433     0.2930    87.3600     4.8559     0.0016
  275    5.480   2462.42     5.0129     0.0145     0.0613     0.0548     5.0387     0.2923    87.6800     4.9510     0.0013
  276    5.500   2463.43     5.1538     0.0144     0.0591     0.0550     5.1790     0.2826    88.0000     5.0910     0.0010
  277    5.520   2464.50     5.4067     0.0148     0.0593     0.0552     5.4313     0.2791    88.3200     5.3430     0.0006
  278    5.540   2465.53     5.6972     0.0147     0.0587     0.0554     5.7221     0.2627    88.6400     5.6335     0.0007
  279    5.560   2466.58     6.0806     0.0164     0.0575     0.0556     6.1052     0.2774    88.9600     6.0162     0.0005
  280    5.580   2467.59     6.3776     0.0188     0.0549     0.0558     6.4018     0.2981    89.2800     6.3126     0.0003
  281    5.600   2468.65     6.6685     0.0206     0.0557     0.0560     6.6915     0.3132    89.6000     6.6019    -0.0002
  282    5.620   2469.67     6.9131     0.0211     0.0582     0.0562     6.9368     0.3104    89.9200     6.8469     0.0000
  283    5.640   2470.68     7.0535     0.0228     0.0573     0.0564     7.0781     0.3269    90.2400     6.9879     0.0003
  284    5.660   2471.71     7.1620     0.0236     0.0596     0.0566     7.1862     0.3310    90.5600     7.0957     0.0001
  285    5.680   2472.77     7.3299     0.0239     0.0575     0.0568     7.3541     0.3299    90.8800     7.2633     0.0001
  286    5.700   2473.75     7.4224     0.0232     0.0595     0.0570     7.4470     0.3141    91.2000     7.3558     0.0002
  287    5.720   2474.83     7.4885     0.0228     0.0596     0.0572     7.5132     0.3048    91.5200     7.4217     0.0002
  288    5.740   2475.86     7.4626     0.0227     0.0607     0.0574     7.4879     0.3039    91.8400     7.3960     0.0004
  289    5.760   2476.91     7.4138     0.0233     0.0612     0.0576     7.4393     0.3127    92.1600     7.3471     0.0004
  290    5.780   2477.94     7.4084     0.0245     0.0590     0.0578     7.4333     0.3301    92.4800     7.3408     0.0002
  291    5.800   2478.97     7.4771     0.0244     0.0600     0.0580     7.5022     0.3298    92.8000     7.4094     0.0002
  292    5.820   2479.94     7.5515     0.0246     0.0612     0.0582     7.5771     0.3267    93.1200     7.4840     0.0004
  293    5.840   2481.02     7.7044     0.0256     0.0603     0.0584     7.7299     0.3365    93.4400     7.6365     0.0003
  294    5.860   2482.10     7.7995     0.0243     0.0595     0.0586     7.8240     0.3118    93.7600     7.7303     0.0000
  295    5.880   2483.16     7.8522     0.0233     0.0607     0.0588     7.8770     0.2975    94.0800     7.7829     0.0000
  296    5.900   2484.11     7.7661     0.0223     0.0615     0.0590     7.7921     0.2861    94.4000     7.6977     0.0004
  297    5.920   2485.17     7.6101     0.0217     0.0630     0.0592     7.6360     0.2838    94.7200     7.5412     0.0003
  298    5.940   2486.22     7.5646     0.0222     0.0620     0.0594     7.5900     0.2930    95.0400     7.4950     0.0002
  299    5.960   2487.25     7.5603     0.0229     0.0625     0.0596     7.5859     0.3028    95.3600     7.4905     0.0002
  300    5.980   2488.27     7.5994     0.0226     0.0618     0.0598     7.6258     0.2985    95.6800     7.5301     0.0004
  301    6.000   2489.32     7.7032     0.0236     0.0618     0.0600     7.7292     0.3078    96.0000     7.6332     0.0003
  302    6.020   2490.38     7.7458     0.0249     0.0630     0.0602     7.7723     0.3214    96.3200     7.6759     0.0004
  303    6.040   2491.42     7.8261     0.0269     0.0624     0.0604     7.8524     0.3462    96.6400     7.7557     0.0003
  304    6.060   2492.46     7.9684     0.0267     0.0628     0.0606     7.9947     0.3379    96.9600     7.8977     0.0003
  305    6.080   2493.48     8.0092     0.0287     0.0618     0.0608     8.0351     0.3582    97.2800     7.9378     0.0001
  306    6.100   2494.50     8.0296     0.0304     0.0616     0.0610     8.0556     0.3795    97.6000     7.9580     0.0001
  307    6.120   2495.58     8.0169     0.0306     0.0620     0.0612     8.0431     0.3824    97.9200     7.9452     0.0001
  308    6.140   2496.62     8.0024     0.0308     0.0635     0.0614     8.0290     0.3853    98.2400     7.9308     0.0002
  309    6.160   2497.61     8.0853     0.0300     0.0634     0.0616     8.1117     0.3730    98.5600     8.0132     0.0002
  310    6.180   2498.68     8.1828     0.0296     0.0626     0.0618     8.2093     0.3634    98.8800     8.1105     0.0002
  311    6.200   2499.96     8.3485     0.0297     0.0623     0.0620     8.3747     0.3586    99.2000     8.2755     0.0001
  312    6.220   2504.04     8.5417     0.0295     0.0617     0.0622     8.5677     0.3545    99.5200     8.4682     0.0000
  313    6.240   2508.13     8.7349     0.0292     0.0612     0.0624     8.7607     0.3505    99.8400     8.6608    -0.0001
  314    6.260   2510.99     8.9456     0.0319     0.0621     0.0626     8.9720     0.3568   100.1600     8.8718     0.0000
  315    6.280   2512.04     9.2725     0.0333     0.0620     0.0628     9.2990     0.3639   100.4800     9.1985     0.0000
  316    6.300   2513.12     9.5259     0.0361     0.0630     0.0630     9.5522     0.3852   100.8000     9.4514     0.0000
  317    6.320   2526.43     9.7368     0.0354     0.0641     0.0632     9.7636     0.3713   101.1200     9.6625     0.0001
  318    6.340   2539.75     9.9475     0.0356     0.0651     0.0634     9.9747     0.3739   101.4400     9.8733     0.0001
  319    6.360   2548.05    10.1738     0.0351     0.0634     0.0636    10.2008     0.3477   101.7600    10.0990     0.0001
  320    6.380   2549.14    10.5516     0.0343     0.0638     0.0638    10.5781     0.3293   102.0800    10.4761    -0.0001
  321    6.400   2550.25    10.9121     0.0334     0.0646     0.0640    10.9388     0.3095   102.4000    10.8364     0.0000
  322    6.420   2551.29    11.1482     0.0339     0.0591     0.0642    11.1749     0.3066   102.7200    11.0722    -0.0001
  323    6.440   2552.34    11.2684     0.0335     0.0628     0.0644    11.2948     0.2976   103.0400    11.1917    -0.0001
  324    6.460   2553.30    11.2763     0.0328     0.0652     0.0646    11.3030     0.2912   103.3600    11.1997    -0.0001
  325    6.480   2554.36    11.3116     0.0338     0.0654     0.0648    11.3389     0.2993   103.6800    11.2352     0.0000
  326    6.500   2555.43    11.2654     0.0348     0.0662     0.0650    11.2931     0.3097   104.0000    11.1891     0.0001
  327    6.520   2556.54    11.4197     0.0346     0.0645     0.0652    11.4469     0.3034   104.3200    11.3426     0.0000
  328    6.540   2557.59    11.6394     0.0366     0.0636     0.0654    11.6663     0.3159   104.6400    11.5617    -0.0001
  329    6.560   2558.63    11.7093     0.0371     0.0643     0.0656    11.7358     0.3169   104.9600    11.6308    -0.0002
  330    6.580   2559.66    11.7244     0.0401     0.0608     0.0658    11.7507     0.3425   105.2800    11.6454    -0.0003
  331    6.600   2560.74    11.7587     0.0440     0.0643     0.0660    11.7854     0.3742   105.6000    11.6798    -0.0002
  332    6.620   2561.78    11.7902     0.0467     0.0624     0.0662    11.8170     0.3966   105.9200    11.7111    -0.0002
  333    6.640   2562.89    11.8920     0.0467     0.0638     0.0664    11.9194     0.3942   106.2400    11.8132    -0.0001
  334    6.660   2563.91    11.9117     0.0475     0.0651     0.0666    11.9393     0.3986   106.5600    11.8328    -0.0001
  335    6.680   2564.97    11.8179     0.0471     0.0673     0.0668    11.8455     0.3972   106.8800    11.7386    -0.0001
  336    6.700   2565.99    11.6575     0.0486     0.0675     0.0670    11.6860     0.4152   107.2000    11.5788     0.0001
  337    6.720   2567.03    11.4861     0.0513     0.0680     0.0672    11.5141     0.4447   107.5200    11.4066     0.0000
  338    6.740   2568.12    11.2961     0.0524     0.0684     0.0674    11.3245     0.4620   107.8400    11.2166     0.0000
  339    6.760   2569.15    11.0300     0.0554     0.0684     0.0676    11.0588     0.4954   108.1600    10.9506     0.0001
  340    6.780   2570.17    10.5720     0.0620     0.0690     0.0678    10.6007     0.5847   108.4800    10.4922     0.0001
  341    6.800   2571.16    10.0348     0.0712     0.0695     0.0680    10.0637     0.6954   108.8000     9.9549     0.0001
  342    6.820   2572.19     9.1338     0.0714     0.0697     0.0682     9.1629     0.7601   109.1200     9.0537     0.0001
  343    6.840   2573.25     8.2808     0.0657     0.0691     0.0684     8.3100     0.7693   109.4400     8.2006     0.0002
  344    6.860   2574.29     7.6946     0.0581     0.0706     0.0686     7.7242     0.7398   109.7600     7.6144     0.0003
  345    6.880   2575.27     7.6876     0.0512     0.0707     0.0688     7.7171     0.6715   110.0800     7.6071     0.0002
  346    6.900   2576.34     8.3408     0.0455     0.0730     0.0690     8.3712     0.5527   110.4000     8.2608     0.0004
  347    6.920   2577.47     9.8472     0.0437     0.0496     0.0692     9.8771     0.4630   110.7200     9.7664     0.0002
  348    6.940   2578.55    11.6746     0.0429    -0.0292     0.0694    11.6688     0.3793   111.0400    11.5577    -0.0072
  349    6.960   2579.55    12.7778     0.0407    -0.0196     0.0696    12.7647     0.3219   111.3600    12.6534    -0.0080
  350    6.980   2580.60    13.7763     0.0359     0.0134     0.0698    13.7789     0.2635   111.6800    13.6672    -0.0047
  351    7.000   2581.68    14.5259     0.0417     0.0322     0.0700    14.5361     0.2880   112.0000    14.4241    -0.0032
  352    7.020   2582.85    14.8798     0.0457     0.0432     0.0702    14.8945     0.3074   112.3200    14.7822    -0.0024
  353    7.040   2583.91    15.0735     0.0465     0.0547     0.0704    15.0955     0.3086   112.6400    14.9829    -0.0012
  354    7.060   2585.03    15.3505     0.0482     0.0655     0.0706    15.3772     0.3145   112.9600    15.2643    -0.0005
  355    7.080   2586.00    15.6289     0.0502     0.0644     0.0708    15.6550     0.3221   113.2800    15.5418    -0.0006
  356    7.100   2587.09    16.0716     0.0508     0.0694     0.0710    16.1006     0.3168   113.6000    15.9870    -0.0001
  357    7.120   2588.22    16.6242     0.0492     0.0734     0.0712    16.6538     0.2973   113.9200    16.5399     0.0000
  358    7.140   2589.29    16.9798     0.0491     0.0713     0.0714    17.0101     0.2907   114.2400    16.8958     0.0000
  359    7.160   2590.36    17.2355     0.0488     0.0711     0.0716    17.2649     0.2833   114.5600    17.1503    -0.0001
  360    7.180   2591.43    17.4109     0.0483     0.0711     0.0718    17.4406     0.2775   114.8800    17.3257    -0.0001
  361    7.200   2592.54    17.6330     0.0498     0.0733     0.0720    17.6631     0.2825   115.2000    17.5479     0.0000
  362    7.220   2593.60    17.8001     0.0513     0.0715     0.0722    17.8301     0.2882   115.5200    17.7146     0.0000
  363    7.240   2594.67    17.8085     0.0527     0.0725     0.0724    17.8396     0.2957   115.8400    17.7237     0.0001
  364    7.260   2595.74    17.9036     0.0535     0.0706     0.0726    17.9341     0.2989   116.1600    17.8179     0.0000
  365    7.280   2596.84    17.9518     0.0522     0.0727     0.0728    17.9823     0.2913   116.4800    17.8659     0.0000
  366    7.300   2597.93    17.9546     0.0514     0.0716     0.0730    17.9851     0.2867   116.8000    17.8683     0.0000
  367    7.320   2599.00    17.9684     0.0528     0.0734     0.0732    17.9994     0.2941   117.1200    17.8822     0.0000
  368    7.340   2600.06    18.0605     0.0543     0.0711     0.0734    18.0901     0.3010   117.4400    17.9727    -0.0002
  369    7.360   2601.17    18.2470     0.0589     0.0701     0.0736    18.2760     0.3236   117.7600    18.1582    -0.0003
  370    7.380   2602.24    18.5367     0.0608     0.0635     0.0738    18.5654     0.3288   118.0800    18.4473    -0.0003
  371    7.400   2603.36    18.6248     0.0601     0.0655     0.0740    18.6517     0.3233   118.4000    18.5333    -0.0005
  372    7.420   2604.47    18.5326     0.0610     0.0677     0.0742    18.5610     0.3289   118.7200    18.4422    -0.0004
  373    7.440   2605.55    18.2850     0.0624     0.0683     0.0744    18.3134     0.3409   119.0400    18.1944    -0.0004
  374    7.460   2606.59    17.9918     0.0628     0.0696     0.0746    18.0218     0.3483   119.3600    17.9025    -0.0002
  375    7.480   2607.62    17.6091     0.0602     0.0683     0.0748    17.6374     0.3410   119.6800    17.5177    -0.0004
  376    7.500   2608.75    17.0407     0.0567     0.0701     0.0750    17.0692     0.3307   120.0000    16.9492    -0.0004
  377    7.520   2609.88    16.5144     0.0585     0.0688     0.0752    16.5438     0.3508   120.3200    16.4235    -0.0003
  378    7.540   2610.97    15.9367     0.0578     0.0702     0.0754    15.9653     0.3605   120.6400    15.8446    -0.0005
  379    7.560   2612.00    15.4866     0.0589     0.0777     0.0756    15.5190     0.3773   120.9600    15.3981     0.0001
  380    7.580   2613.09    15.0413     0.0602     0.0740     0.0758    15.0721     0.3969   121.2800    14.9509    -0.0002
  381    7.600   2614.14    14.7700     0.0620     0.0731     0.0760    14.8004     0.4174   121.6000    14.6788    -0.0002
  382    7.620   2615.19    14.3598     0.0682     0.0759     0.0762    14.3912     0.4696   121.9200    14.2693    -0.0001
  383    7.640   2616.21    13.9471     0.0751     0.0768     0.0764    13.9792     0.5338   122.2400    13.8569     0.0000
  384    7.660   2617.33    13.5289     0.0773     0.0760     0.0766    13.5605     0.5647   122.5600    13.4380    -0.0001
  385    7.680   2618.39    13.1289     0.0689     0.0768     0.0768    13.1607     0.5180   122.8800    13.0378    -0.0001
  386    7.700   2619.44    12.4498     0.0551     0.0776     0.0770    12.4824     0.4344   123.2000    12.3592     0.0000
  387    7.720   2620.47    11.3985     0.0494     0.0776     0.0772    11.4310     0.4259   123.5200    11.3074     0.0000
  388    7.740   2621.52    10.7609     0.0451     0.0768     0.0774    10.7931     0.4143   123.8400    10.6692    -0.0001
  389    7.760   2622.52    10.7069     0.0377     0.0785     0.0776    10.7396     0.3523   124.1600    10.6154     0.0000
  390    7.780   2623.57    11.0420     0.0342     0.0790     0.0778    11.0753     0.3126   124.4800    10.9508     0.0001
  391    7.800   2624.63    11.5797     0.0341     0.0788     0.0780    11.6134     0.2990   124.8000    11.4886     0.0002
  392    7.820   2625.74    11.9880     0.0396     0.0749     0.0782    12.0201     0.3336   125.1200    11.8950    -0.0002
  393    7.840   2626.80    12.0005     0.0503     0.0574     0.0784    12.0255     0.4185   125.4400    11.9000    -0.0016
  394    7.860   2627.87    11.5110     0.0676     0.0573     0.0786    11.5345     0.5803   125.7600    11.4087    -0.0020
  395    7.880   2628.88    10.6476     0.0868     0.0672     0.0788    10.6746     0.7820   126.0800    10.5486    -0.0014
  396    7.900   2629.88     9.2353     0.1093     0.0723     0.0790     9.2650     1.0989   126.4000     9.1386    -0.0009
  397    7.920   2630.87     7.3645     0.1215     0.0780     0.0792     7.3962     1.4970   126.7200     7.2695    -0.0005
  398    7.940   2631.87     5.6085     0.1244     0.0818     0.0794     5.6419     1.9726   127.0400     5.5149     0.0000
  399    7.960   2632.90     4.4880     0.1170     0.0847     0.0796     4.5237     2.5208   127.3600     4.3963     0.0012
  400    7.980   2634.01     3.9207     0.1127     0.0864     0.0798     3.9567     2.7397   127.6800     3.8290     0.0015
  401    8.000   2635.04     3.3257     0.1012     0.1002     0.0800     3.3634     2.7719   128.0000     3.2354     0.0030
  402    8.020   2636.04     2.6850     0.0913     0.2107     0.0802     2.7514     3.3363   128.3200     2.6230     0.0299
  403    8.040   2637.07     2.2998     0.0739     0.2903     0.0804     2.4182     3.0577   128.6400     2.2896     0.0882
  404    8.060   2638.05     2.0734     0.0495     0.3931     0.0806     2.2167     2.3090   128.9600     2.0877     0.1249
  405    8.080   2639.16     2.0125     0.0399     0.4776     0.0808     2.2044     2.0096   129.2800     2.0752     0.1813
  406    8.100   2640.14     1.8646     0.0447     0.5632     0.0810     2.0913     2.3876   129.6000     1.9617     0.2339
  407    8.120   2641.12     1.8276     0.0507     0.6527     0.0812     2.0855     2.7861   129.9200     1.9556     0.2725
  408    8.140   2642.15     2.1680     0.0575     0.6978     0.0814     2.4649     2.7991   130.2400     2.3347     0.2682
  409    8.160   2643.27     2.9115     0.0650     0.5727     0.0816     3.1722     2.4191   130.5600     3.0417     0.1781
  410    8.180   2644.44     3.3555     0.0693     0.4107     0.0818     3.5515     2.1005   130.8800     3.4207     0.1126
  411    8.200   2665.00     3.0595     0.0725     0.2591     0.0820     3.1903     2.1559   131.2000     3.0591     0.0695
  412    8.220   2687.06     2.7313     0.0742     0.1604     0.0822     2.7985     2.2067   131.5200     2.6669     0.0277
  413    8.240   2690.51     2.2650     0.0658     0.2735     0.0824     2.3622     2.6236   131.8400     2.2304     0.0674
  414    8.260   2691.57     1.8434     0.0531     0.3574     0.0826     1.9826     2.6533   132.1600     1.8505     0.1347
  415    8.280   2692.55     1.6017     0.0471     0.4887     0.0828     1.7829     2.7842   132.4800     1.6505     0.2117
  416    8.300   2693.57     1.7009     0.0459     0.5992     0.0830     1.9396     3.0122   132.8000     1.8068     0.2687
  417    8.320   2694.62     2.5473     0.0423     0.5812     0.0832     2.8100     1.7332   133.1200     2.6769     0.2026
  418    8.340   2695.66     3.6565     0.0398     0.3816     0.0834     3.8541     1.1049   133.4400     3.7207     0.1041
  419    8.360   2696.68     4.0040     0.0394     0.1148     0.0836     4.0690     0.9820   133.7600     3.9352     0.0180
  420    8.380   2697.67     3.6254     0.0441     0.0918     0.0838     3.6666     1.1408   134.0800     3.5326     0.0041
  421    8.400   2698.72     3.0534     0.0425     0.0885     0.0840     3.0951     1.3763   134.4000     2.9607     0.0051
  422    8.420   2699.69     2.8411     0.0399    -0.0013     0.0842     2.8454     1.4011   134.7200     2.7107    -0.0273
  423    8.440   2700.68     2.8079     0.0349     0.0280     0.0844     2.8177     1.2622   135.0400     2.6827    -0.0227
  424    8.460   2701.71     2.9179     0.0269     0.0401     0.0846     2.9336     0.9331   135.3600     2.7983    -0.0168
  425    8.480   2702.72     2.8961     0.0260     0.0580     0.0848     2.9173     0.8951   135.6800     2.7817    -0.0123
  426    8.500   2703.73     2.7224     0.0301     0.0663     0.0850     2.7478     1.0731   136.0000     2.6118    -0.0094
  427    8.520   2704.75     2.3469     0.0363     0.0766     0.0852     2.3786     1.5258   136.3200     2.2423    -0.0044
  428    8.540   2705.81     1.9264     0.0397     0.0945     0.0854     1.9630     2.0361   136.6400     1.8264     0.0011
  429    8.560   2706.84     1.5221     0.0438     0.1169     0.0856     1.5671     2.7594   136.9600     1.4301     0.0153
  430    8.580   2707.82     1.2612     0.0435     0.1338     0.0858     1.3146     3.4253   137.2800     1.1773     0.0354
  431    8.600   2708.79     1.0859     0.0418     0.1477     0.0860     1.1468     3.8309   137.6000     1.0092     0.0585
  432    8.620   2709.79     0.9546     0.0397     0.1590     0.0862     1.0199     4.1427   137.9200     0.8820     0.0786
  433    8.640   2710.84     0.8577     0.0345     0.1961     0.0864     0.9354     3.8947   138.2400     0.7972     0.1238
  434    8.660   2711.86     0.8141     0.0328     0.2344     0.0866     0.9039     4.0351   138.5600     0.7654     0.1662
  435    8.680   2712.90     0.9296     0.0388     0.2740     0.0868     1.0418     4.3459   138.8800     0.9029     0.2007
  436    8.700   2713.87     1.5840     0.0377     0.2786     0.0870     1.7030     2.7603   139.2000     1.5638     0.1284
  437    8.720   2714.88     2.2045     0.0366     0.2211     0.0872     2.3078     1.8879   139.5200     2.1683     0.0738
  438    8.740   2715.89     2.2804     0.0396     0.1989     0.0874     2.3629     1.7416   139.8400     2.2230     0.0491
  439    8.760   2716.92     1.9845     0.0431     0.2350     0.0876     2.0765     2.0953   140.1600     1.9364     0.0682
  440    8.780   2717.94     1.7642     0.0459     0.2719     0.0878     1.8701     2.5975   140.4800     1.7296     0.0951
  441    8.800   2718.94     1.8465     0.0453     0.3491     0.0880     1.9900     2.4821   140.8000     1.8492     0.1370
  442    8.820   2719.95     2.5775     0.0402     0.3133     0.0882     2.7129     1.6023   141.1200     2.5718     0.0916
  443    8.840   2720.97     3.1092     0.0419     0.2506     0.0884     3.2241     1.3594   141.4400     3.0827     0.0604
  444    8.860   2721.96     3.3281     0.0437     0.2361     0.0886     3.4258     1.3404   141.7600     3.2840     0.0438
  445    8.880   2723.00     3.0538     0.0372     0.2300     0.0888     3.1516     1.2145   142.0800     3.0095     0.0478
  446    8.900   2724.01     2.5408     0.0374     0.2493     0.0890     2.6408     1.4325   142.4000     2.4984     0.0600
  447    8.920   2725.01     1.9847     0.0383     0.3253     0.0892     2.1095     1.9152   142.7200     1.9668     0.1063
  448    8.940   2725.99     1.6293     0.0370     0.4156     0.0894     1.7946     2.1475   143.0400     1.6515     0.1848
  449    8.960   2727.03     1.5105     0.0344     0.4628     0.0896     1.6919     2.2168   143.3600     1.5485     0.2211
  450    8.980   2728.07     1.3789     0.0303     0.5395     0.0898     1.5984     2.1887   143.6800     1.4547     0.2976
  451    9.000   2729.09     1.2872     0.0274     0.5972     0.0900     1.5314     2.1070   144.0000     1.3874     0.3543
  452    9.020   2730.10     1.2299     0.0309     0.6298     0.0902     1.4934     2.4979   144.3200     1.3491     0.3983
  453    9.040   2731.08     1.3512     0.0323     0.6135     0.0904     1.6135     2.4195   144.6400     1.4689     0.3641
  454    9.060   2732.10     1.4002     0.0292     0.5620     0.0906     1.6459     2.0862   144.9600     1.5010     0.3294
  455    9.080   2733.14     1.4355     0.0274     0.4887     0.0908     1.6464     1.9285   145.2800     1.5011     0.2740
  456    9.100   2734.16     1.3356     0.0267     0.4434     0.0910     1.5246     1.9781   145.6000     1.3790     0.2604
  457    9.120   2735.15     1.1139     0.0262     0.4524     0.0912     1.3017     2.3326   145.9200     1.1558     0.3081
  458    9.140   2736.15     1.0147     0.0275     0.4389     0.0914     1.2042     2.7006   146.2400     1.0580     0.3401
  459    9.160   2737.12     0.9511     0.0314     0.4278     0.0916     1.1338     3.2898   146.5600     0.9873     0.3480
  460    9.180   2738.21     0.9144     0.0250     0.3637     0.0918     1.0713     2.7274   146.8800     0.9244     0.3048
  461    9.200   2739.23     0.8352     0.0227     0.3475     0.0920     0.9814     2.7057   147.2000     0.8342     0.3072
  462    9.220   2740.21     0.8001     0.0233     0.3228     0.0922     0.9387     3.0012   147.5200     0.7911     0.3004
  463    9.240   2741.18     0.8883     0.0225     0.3008     0.0924     1.0065     2.8200   147.8400     0.8587     0.2226
  464    9.260   2742.22     2.0438     0.0203     0.2840     0.0926     2.1704     1.5723   148.1600     2.0222     0.1052
  465    9.280   2743.25     3.7652     0.0204     0.1382     0.0928     3.8524     0.6926   148.4800     3.7039     0.0319
  466    9.300   2744.28     4.7421     0.0208     0.0910     0.0930     4.7839     0.4636   148.8000     4.6351     0.0014
  467    9.320   2745.29     5.2521     0.0245     0.1032     0.0932     5.2914     0.4823   149.1200     5.1423     0.0001
  468    9.340   2746.29     5.5742     0.0282     0.1114     0.0934     5.6208     0.5175   149.4400     5.4714     0.0032
  469    9.360   2747.31     5.6651     0.0297     0.0978     0.0936     5.7089     0.5250   149.7600     5.5592     0.0019
  470    9.380   2748.36     5.6863     0.0299     0.1003     0.0938     5.7284     0.5278   150.0800     5.5784     0.0011
  471    9.400   2749.41     5.5691     0.0319     0.1065     0.0940     5.6128     0.5682   150.4000     5.4624     0.0018
  472    9.420   2750.37     5.4722     0.0355     0.1205     0.0942     5.5217     0.6430   150.7200     5.3710     0.0044
  473    9.440   2751.37     5.3858     0.0367     0.1037     0.0944     5.4322     0.6763   151.0400     5.2812     0.0031
  474    9.460   2752.44     5.3478     0.0389     0.0840     0.0946     5.3847     0.7247   151.3600     5.2334    -0.0013
  475    9.480   2753.47     5.3090     0.0355     0.0953     0.0948     5.3462     0.6679   151.6800     5.1945    -0.0012
  476    9.500   2754.50     5.4134     0.0308     0.0958     0.0950     5.4584     0.5722   152.0000     5.3064     0.0023
  477    9.520   2755.53     5.4531     0.0332     0.0463     0.0952     5.4789     0.6140   152.3200     5.3266    -0.0063
  478    9.540   2756.54     5.4267     0.0329     0.0273     0.0954     5.4450     0.5999   152.6400     5.2924    -0.0098
  479    9.560   2757.56     5.3240     0.0305     0.0235     0.0956     5.3312     0.5704   152.9600     5.1782    -0.0152
  480    9.580   2758.58     5.2909     0.0353    -0.0081     0.0958     5.2908     0.6617   153.2800     5.1376    -0.0187
  481    9.600   2759.63     5.5704     0.0411    -0.0245     0.0960     5.5590     0.7668   153.6000     5.4054    -0.0228
  482    9.620   2760.64     5.9789     0.0471    -0.0234     0.0962     5.9724     0.8130   153.9200     5.8185    -0.0192
  483    9.640   2761.72     6.1925     0.0521    -0.0275     0.0964     6.1806     0.8396   154.2400     6.0264    -0.0207
  484    9.660   2762.75     6.0232     0.0562    -0.0160     0.0966     6.0118     0.9228   154.5600     5.8573    -0.0211
  485    9.680   2763.75     5.7520     0.0622    -0.0479     0.0968     5.7385     1.0794   154.8800     5.5836    -0.0231
  486    9.700   2764.73     5.2583     0.0615    -0.0619     0.0970     5.2345     1.1248   155.2000     5.0793    -0.0303
  487    9.720   2765.73     4.5918     0.0597    -0.0526     0.0972     4.5731     1.2929   155.5200     4.4176    -0.0321
  488    9.740   2766.80     4.0973     0.0625     0.0027     0.0974     4.0909     1.4974   155.8400     3.9351    -0.0285
  489    9.760   2767.79     3.4263     0.0553     0.0575     0.0976     3.4412     1.5855   156.1600     3.2850    -0.0188
  490    9.780   2768.81     2.9266     0.0517     0.1380     0.0978     2.9724     1.6484   156.4800     2.8160     0.0042
  491    9.800   2769.79     2.5664     0.0465     0.2186     0.0980     2.6460     1.8001   156.8000     2.4892     0.0369
  492    9.820   2770.81     2.2315     0.0414     0.2978     0.0982     2.3450     1.8147   157.1200     2.1879     0.0790
  493    9.840   2771.78     2.0946     0.0414     0.3489     0.0984     2.2350     1.9501   157.4400     2.0776     0.1135
  494    9.860   2772.82     2.1902     0.0374     0.3592     0.0986     2.3395     1.7499   157.7600     2.1817     0.1178
  495    9.880   2773.88     2.7044     0.0411     0.3580     0.0988     2.8559     1.5384   158.0800     2.6978     0.0973
  496    9.900   2774.90     3.3572     0.0424     0.2761     0.0990     3.4856     1.3239   158.4000     3.3272     0.0625
  497    9.920   2775.88     3.6125     0.0464     0.2164     0.0992     3.7099     1.3040   158.7200     3.5511     0.0374
  498    9.940   2776.91     3.3204     0.0432     0.2020     0.0994     3.4052     1.2481   159.0400     3.2461     0.0316
  499    9.960   2777.88     2.8289     0.0444     0.2452     0.0996     2.9228     1.4544   159.3600     2.7634     0.0452
  500    9.980   2778.92     2.4250     0.0485     0.3083     0.0998     2.5447     1.9276   159.6800     2.3850     0.0779
  501   10.000   2779.95     2.1380     0.0475     0.3580     0.1000     2.2820     2.1289   160.0000     2.1220     0.1147
  502   10.020   2780.98     1.8477     0.0399     0.4419     0.1002     2.0206     2.0356   160.3200     1.8603     0.1677
  503   10.040   2781.98     1.9002     0.0345     0.4427     0.1004     2.0895     1.8294   160.6400     1.9289     0.1818
  504   10.060   2783.01     1.9244     0.0322     0.4603     0.1006     2.1104     1.6441   160.9600     1.9494     0.1755
  505   10.080   2784.02     1.7922     0.0306     0.4988     0.1008     1.9940     1.7051   161.2800     1.8327     0.2070
  506   10.100   2785.04     1.6634     0.0319     0.5550     0.1010     1.8897     1.8615   161.6000     1.7281     0.2534
  507   10.120   2786.06     1.6279     0.0330     0.5657     0.1012     1.8664     2.0234   161.9200     1.7045     0.2737
  508   10.140   2787.08     1.6104     0.0335     0.5775     0.1014     1.8496     2.0786   162.2400     1.6873     0.2775
  509   10.160   2788.02     1.5795     0.0283     0.6185     0.1016     1.8320     1.7911   162.5600     1.6695     0.2994
  510   10.180   2789.08     1.5265     0.0279     0.6435     0.1018     1.7953     1.8033   162.8800     1.6324     0.3297
  511   10.200   2790.11     1.5386     0.0380     0.6657     0.1020     1.8105     2.4575   163.2000     1.6473     0.3310
  512   10.220   2791.11     1.6360     0.0480     0.7060     0.1022     1.9249     3.1117   163.5200     1.7613     0.3325
  513   10.240   2792.15     2.0482     0.0437     0.7105     0.1024     2.3579     2.1613   163.8400     2.1941     0.2895
  514   10.260   2793.15     2.5360     0.0391     0.5267     0.1026     2.7883     1.6879   164.1600     2.6241     0.1898
  515   10.280   2794.11     2.5463     0.0368     0.3780     0.1028     2.7080     1.4174   164.4800     2.5436     0.1108
  516   10.300   2805.25     2.1645     0.0346     0.3942     0.1030     2.3277     1.3614   164.8000     2.1629     0.1406
  517   10.320   2816.98     1.7669     0.0346     0.4105     0.1032     1.9369     1.4538   165.1200     1.7718     0.1763
  518   10.340   2822.23     1.4396     0.0327     0.5422     0.1034     1.6555     2.0768   165.4400     1.4900     0.2756
  519   10.360   2823.26     1.3624     0.0273     0.5797     0.1036     1.6008     2.0031   165.7600     1.4350     0.3232
  520   10.380   2824.26     1.3692     0.0233     0.6117     0.1038     1.6218     1.6998   166.0800     1.4557     0.3419
  521   10.400   2825.33     1.3546     0.0232     0.6188     0.1040     1.6142     1.7083   166.4000     1.4478     0.3551
  522   10.420   2826.32     1.3462     0.0231     0.6243     0.1042     1.6071     1.7152   166.7200     1.4403     0.3589
  523   10.440   2827.34     1.3114     0.0237     0.6330     0.1044     1.5758     1.7830   167.0400     1.4088     0.3728
  524   10.460   2828.33     1.2805     0.0245     0.6463     0.1046     1.5499     1.8912   167.3600     1.3825     0.3882
  525   10.480   2829.33     1.2535     0.0237     0.6396     0.1048     1.5235     1.8693   167.6800     1.3558     0.3969
  526   10.500   2830.35     1.2151     0.0230     0.6376     0.1050     1.4832     1.8695   168.0000     1.3152     0.4055
  527   10.520   2831.40     1.2174     0.0222     0.6368     0.1052     1.4845     1.8126   168.3200     1.3162     0.4033
  528   10.540   2832.41     1.2065     0.0255     0.6296     0.1054     1.4720     2.1164   168.6400     1.3033     0.4041
  529   10.560   2833.43     1.1946     0.0276     0.6582     0.1056     1.4661     2.3040   168.9600     1.2971     0.4169
  530   10.580   2834.46     1.1735     0.0283     0.6614     0.1058     1.4517     2.4129   169.2800     1.2824     0.4341
  531   10.600   2835.41     1.2122     0.0291     0.6682     0.1060     1.4924     2.4015   169.6000     1.3228     0.4242
  532   10.620   2836.39     1.1901     0.0271     0.6618     0.1062     1.4673     2.2721   169.9200     1.2974     0.4268
  533   10.640   2837.41     1.1766     0.0264     0.7082     0.1064     1.4681     2.2285   170.2400     1.2979     0.4528
  534   10.660   2838.48     1.1966     0.0294     0.7337     0.1066     1.5029     2.4681   170.5600     1.3323     0.4672
  535   10.680   2839.52     1.2943     0.0332     0.7411     0.1068     1.6041     2.5889   170.8800     1.4332     0.4401
  536   10.700   2840.46     1.3484     0.0340     0.7353     0.1070     1.6580     2.5326   171.2000     1.4868     0.4239
  537   10.720   2841.53     1.5007     0.0325     0.6919     0.1072     1.8139     2.1727   171.5200     1.6424     0.3888
  538   10.740   2842.53     1.6009     0.0291     0.6563     0.1074     1.8788     1.8171   171.8400     1.7069     0.3247
  539   10.760   2843.55     1.3498     0.0255     0.6637     0.1076     1.6208     1.8734   172.1600     1.4487     0.3717
  540   10.780   2844.50     1.2228     0.0236     0.7054     0.1078     1.5103     1.9092   172.4800     1.3378     0.4312
  541   10.800   2845.51     1.1904     0.0265     0.7862     0.1080     1.5113     2.2278   172.8000     1.3385     0.4901
  542   10.820   2846.53     1.3338     0.0243     0.8128     0.1082     1.6716     1.9838   173.1200     1.4985     0.4652
  543   10.840   2847.57     1.8539     0.0274     0.7899     0.1084     2.1942     1.7541   173.4400     2.0208     0.3483
  544   10.860   2848.58     2.4542     0.0322     0.6754     0.1086     2.7590     1.4585   173.7600     2.5852     0.2390
  545   10.880   2849.54     2.5555     0.0353     0.5854     0.1088     2.8098     1.4003   174.0800     2.6357     0.1885
  546   10.900   2850.56     2.6078     0.0457     0.5249     0.1090     2.8443     1.7149   174.4000     2.6699     0.1700
  547   10.920   2851.65     2.4994     0.0520     0.3886     0.1092     2.6739     2.0850   174.7200     2.4992     0.1225
  548   10.940   2852.69     2.5897     0.0492     0.4194     0.1094     2.7527     1.9043   175.0400     2.5777     0.1081
  549   10.960   2853.70     2.6571     0.0472     0.4555     0.1096     2.8571     1.7785   175.3600     2.6818     0.1368
  550   10.980   2854.69     2.5629     0.0464     0.4829     0.1098     2.7535     1.7509   175.6800     2.5778     0.1336
  551   11.000   2855.68     2.4143     0.0467     0.5925     0.1100     2.6521     1.9319   176.0000     2.4761     0.1843
  552   11.020   2856.68     2.6852     0.0546     0.5684     0.1102     2.9203     2.1971   176.3200     2.7440     0.1639
  553   11.040   2857.80     2.9649     0.0554     0.4336     0.1104     3.1602     1.8711   176.6400     2.9835     0.1188
  554   11.060   2858.81     3.0158     0.0541     0.3452     0.1106     3.1716     1.7917   176.9600     2.9946     0.0869
  555   11.080   2859.81     2.8801     0.0556     0.2959     0.1108     3.0077     1.9033   177.2800     2.8304     0.0681
  556   11.100   2860.76     2.4342     0.0520     0.3182     0.1110     2.5605     2.0921   177.6000     2.3829     0.0799
  557   11.120   2861.80     2.0472     0.0412     0.3849     0.1112     2.2018     1.8610   177.9200     2.0239     0.1271
  558   11.140   2862.87     1.8351     0.0411     0.5354     0.1114     2.0355     2.2339   178.2400     1.8573     0.1975
  559   11.160   2863.84     1.7692     0.0435     0.5969     0.1116     2.0136     2.3902   178.5600     1.8350     0.2568
  560   11.180   2864.82     2.2690     0.0461     0.6242     0.1118     2.5233     2.0969   178.8800     2.3444     0.2107
  561   11.200   2865.82     2.8346     0.0448     0.5322     0.1120     3.0908     1.7896   179.2000     2.9116     0.1731
  562   11.220   2866.89     3.3777     0.0549     0.3229     0.1122     3.5438     1.6987   179.5200     3.3643     0.0846
  563   11.240   2867.92     3.8728     0.0699     0.3037     0.1124     3.9976     1.8170   179.8400     3.8178     0.0485
  564   11.260   2868.94     3.9936     0.0767     0.2915     0.1126     4.1236     1.9832   180.1600     3.9435     0.0501
  565   11.280   2869.93     4.1362     0.0710     0.1963     0.1128     4.2367     1.7193   180.4800     4.0562     0.0311
  566   11.300   2870.97     3.7926     0.0845     0.1637     0.1130     3.8611     2.1174   180.8000     3.6803     0.0136
  567   11.320   2872.01     3.5185     0.0891     0.2181     0.1132     3.5973     2.4932   181.1200     3.4162     0.0218
  568   11.340   2872.99     3.5578     0.0872     0.2676     0.1134     3.6660     2.4597   181.4400     3.4845     0.0414
  569   11.360   2874.02     3.7755     0.0776     0.2798     0.1136     3.9116     2.0088   181.7600     3.7299     0.0565
  570   11.380   2875.05     3.4694     0.0846     0.2091     0.1138     3.5550     2.3956   182.0800     3.3729     0.0267
  571   11.400   2876.11     3.3592     0.0772     0.2869     0.1140     3.4619     2.2990   182.4000     3.2795     0.0398
  572   11.420   2877.10     3.1793     0.0792     0.3236     0.1142     3.3185     2.4385   182.7200     3.1358     0.0693
  573   11.440   2878.06     3.1574     0.0794     0.2814     0.1144     3.2842     2.4532   183.0400     3.1011     0.0604
  574   11.460   2879.07     2.8450     0.0663     0.2707     0.1146     2.9545     2.2600   183.3600     2.7711     0.0527
  575   11.480   2880.16     2.8908     0.0508     0.3687     0.1148     3.0286     1.8042   183.6800     2.8449     0.0750
  576   11.500   2881.16     3.1889     0.0511     0.3620     0.1150     3.3509     1.7038   184.0000     3.1669     0.0855
  577   11.520   2882.21     3.8630     0.0586     0.3263     0.1152     4.0073     1.5285   184.3200     3.8229     0.0598
  578   11.540   2883.23     4.3575     0.0623     0.3122     0.1154     4.4871     1.4810   184.6400     4.3024     0.0449
  579   11.560   2884.29     4.4824     0.0597     0.3355     0.1156     4.6195     1.3196   184.9600     4.4345     0.0476
  580   11.580   2885.27     3.7607     0.0643     0.1315     0.1158     3.8349     1.6966   185.2800     3.6497     0.0163
  581   11.600   2886.22     2.9835     0.0610     0.1641     0.1160     3.0379     2.0035   185.6000     2.8523     0.0052
  582   11.620   2887.24     2.3461     0.0582     0.2961     0.1162     2.4574     2.4542   185.9200     2.2715     0.0659
  583   11.640   2888.29     1.7506     0.0528     0.4595     0.1164     1.9107     2.7216   186.2400     1.7244     0.1557
  584   11.660   2889.31     1.4794     0.0369     0.5138     0.1166     1.6922     2.4087   186.5600     1.5056     0.2591
  585   11.680   2890.32     1.4348     0.0240     0.5419     0.1168     1.6595     1.6698   186.8800     1.4726     0.2840
  586   11.700   2891.32     1.4647     0.0204     0.5589     0.1170     1.6964     1.3982   187.2000     1.5092     0.2880
  587   11.720   2892.28     1.5047     0.0259     0.5834     0.1172     1.7485     1.7437   187.5200     1.5609     0.2968
  588   11.740   2893.34     1.9103     0.0302     0.5695     0.1174     2.1569     1.8374   187.8400     1.9690     0.2409
  589   11.760   2894.42     2.6415     0.0323     0.4918     0.1176     2.8563     1.3892   188.1600     2.6681     0.1481
  590   11.780   2895.41     2.9985     0.0301     0.4471     0.1178     3.1944     1.0615   188.4800     3.0059     0.1163
  591   11.800   2896.38     3.5738     0.0328     0.4047     0.1180     3.7485     0.9764   188.8000     3.5597     0.0840
  592   11.820   2897.39     4.0375     0.0377     0.3955     0.1182     4.2058     0.9676   189.1200     4.0167     0.0704
  593   11.840   2898.48     4.6070     0.0352     0.3217     0.1184     4.7600     0.8104   189.4400     4.5706     0.0540
  594   11.860   2899.50     5.4427     0.0272     0.1890     0.1186     5.5361     0.5329   189.7600     5.3463     0.0196
  595   11.880   2900.57     6.4073     0.0217     0.1544     0.1188     6.4735     0.3621   190.0800     6.2834     0.0062
  596   11.900   2901.60     7.5100     0.0220     0.1267     0.1190     7.5736     0.3127   190.4000     7.3832     0.0044
  597   11.920   2902.64     8.3724     0.0268     0.0462     0.1192     8.4070     0.3329   190.7200     8.2163    -0.0045
  598   11.940   2903.69     8.7786     0.0353     0.0117     0.1194     8.7806     0.4059   191.0400     8.5896    -0.0133
  599   11.960   2904.75     8.7569     0.0429     0.0335     0.1196     8.7668     0.4874   191.3600     8.5754    -0.0112
  600   11.980   2905.77     8.5854     0.0485     0.0688     0.1198     8.6096     0.5621   191.6800     8.4179    -0.0074
  601   12.000   2906.77     8.5370     0.0576     0.1081     0.1200     8.5767     0.6756   192.0000     8.3847    -0.0031
  602   12.020   2907.80     8.6020     0.0703     0.1234     0.1202     8.6526     0.8189   192.3200     8.4603     0.0000
  603   12.040   2908.89     8.5546     0.0790     0.1335     0.1204     8.6091     0.9193   192.6400     8.4164     0.0011
  604   12.060   2909.92     8.2886     0.0829     0.1417     0.1206     8.3470     0.9846   192.9600     8.1540     0.0023
  605   12.080   2910.98     7.9718     0.0798     0.1532     0.1208     8.0342     0.9893   193.2800     7.8410     0.0036
  606   12.100   2911.98     7.9898     0.0794     0.1769     0.1210     8.0601     1.0018   193.6000     7.8665     0.0059
  607   12.120   2913.02     8.6781     0.0772     0.1577     0.1212     8.7505     0.9122   193.9200     8.5566     0.0060
  608   12.140   2914.03     9.4229     0.0750     0.1075     0.1214     9.4712     0.8120   194.2400     9.2770    -0.0007
  609   12.160   2915.09     9.7340     0.0682     0.0520     0.1216     9.7651     0.7023   194.5600     9.5706    -0.0050
  610   12.180   2916.20     9.8502     0.0623     0.0150     0.1218     9.8635     0.6334   194.8800     9.6686    -0.0093
  611   12.200   2917.24     9.6914     0.0585    -0.0118     0.1220     9.6873     0.5994   195.2000     9.4921    -0.0139
  612   12.220   2925.73     9.3746     0.0608     0.0079     0.1222     9.3757     0.6526   195.5200     9.1802    -0.0130
  613   12.240   2941.59     9.4858     0.0669     0.0230     0.1224     9.4933     0.7174   195.8400     9.2975    -0.0113
  614   12.260   2952.48     9.4300     0.0689     0.0269     0.1226     9.4408     0.7244   196.1600     9.2446    -0.0105
  615   12.280   2953.49     9.0787     0.0626     0.0465     0.1228     9.0945     0.6751   196.4800     8.8980    -0.0096
  616   12.300   2954.51     8.7245     0.0555     0.0606     0.1230     8.7504     0.6264   196.8000     8.5536    -0.0072
  617   12.320   2955.55     8.4197     0.0509     0.0440     0.1232     8.4415     0.5942   197.1200     8.2444    -0.0087
  618   12.340   2956.61     8.2041     0.0391     0.0319     0.1234     8.2163     0.4748   197.4400     8.0189    -0.0118
  619   12.360   2957.66     7.8730     0.0337     0.0590     0.1236     7.8941     0.4271   197.7600     7.6964    -0.0095
  620   12.380   2958.67     7.4718     0.0376     0.0957     0.1238     7.5066     0.5021   198.0800     7.3086    -0.0056
  621   12.400   2959.69     6.8879     0.0442     0.1359     0.1240     6.9391     0.6384   198.4000     6.7407    -0.0003
  622   12.420   2960.69     6.4148     0.0451     0.1718     0.1242     6.4815     0.6990   198.7200     6.2827     0.0055
  623   12.440   2961.69     5.9033     0.0438     0.2062     0.1244     5.9856     0.7118   199.0400     5.7865     0.0123
  624   12.460   2962.70     5.5937     0.0520     0.2482     0.1246     5.6920     0.9154   199.3600     5.4927     0.0199
  625   12.480   2963.73     5.5307     0.0576     0.2729     0.1248     5.6424     1.0392   199.6800     5.4428     0.0260
  626   12.500   2964.76     5.6415     0.0548     0.2841     0.1250     5.7607     0.9749   200.0000     5.5607     0.0286
  627   12.520   2965.80     5.7042     0.0467     0.2971     0.1252     5.8289     0.8163   200.3200     5.6286     0.0305
  628   12.540   2966.84     5.5292     0.0472     0.3160     0.1254     5.6572     0.8446   200.6400     5.4566     0.0329
  629   12.560   2967.85     5.3133     0.0560     0.3316     0.1256     5.4538     1.0520   200.9600     5.2528     0.0398
  630   12.580   2968.86     4.9927     0.0672     0.3167     0.1258     5.1261     1.3187   201.2800     4.9249     0.0390
  631   12.600   2969.86     4.4137     0.0736     0.3302     0.1260     4.5524     1.6174   201.6000     4.3508     0.0470
  632   12.620   2970.89     3.8240     0.0707     0.3562     0.1262     3.9662     1.8406   201.9200     3.7642     0.0565
  633   12.640   2971.91     3.2811     0.0710     0.4668     0.1264     3.4605     2.1434   202.2400     3.2583     0.0928
  634   12.660   2972.91     2.7219     0.0741     0.5602     0.1266     2.9459     2.4572   202.5600     2.7433     0.1492
  635   12.680   2973.93     2.3098     0.0709     0.6458     0.1268     2.5651     3.0473   202.8800     2.3622     0.2039
  636   12.700   2974.91     2.1007     0.0573     0.7378     0.1270     2.4022     2.7081   203.2000     2.1990     0.2687
  637   12.720   2975.98     2.0626     0.0456     0.7526     0.1272     2.3741     2.1650   203.5200     2.1706     0.2832
  638   12.740   2976.95     1.9098     0.0442     0.8529     0.1274     2.2537     2.2567   203.8400     2.0498     0.3375
  639   12.760   2978.00     1.9155     0.0493     0.8970     0.1276     2.2888     2.5817   204.1600     2.0847     0.3652
  640   12.780   2978.99     1.9998     0.0569     0.9310     0.1278     2.3848     2.8760   204.4800     2.1803     0.3618
  641   12.800   2980.00     2.0570     0.0628     0.8941     0.1280     2.4413     3.0576   204.8000     2.2365     0.3519
  642   12.820   2981.05     2.1036     0.0610     0.8623     0.1282     2.4672     2.8984   205.1200     2.2621     0.3260
  643   12.840   2982.04     2.0747     0.0627     0.8780     0.1284     2.4394     3.0148   205.4400     2.2340     0.3313
  644   12.860   2983.02     2.0010     0.0640     0.9277     0.1286     2.3850     3.1384   205.7600     2.1792     0.3606
  645   12.880   2984.07     1.9493     0.0637     0.9466     0.1288     2.3417     3.2481   206.0800     2.1356     0.3771
  646   12.900   2985.10     1.8528     0.0558     0.9906     0.1290     2.2696     2.9127   206.4000     2.0632     0.4185
  647   12.920   2986.08     1.8466     0.0503     0.9445     0.1292     2.2497     2.7417   206.7200     2.0429     0.4065
  648   12.940   2987.17     1.8524     0.0518     0.9448     0.1294     2.2470     2.7925   207.0400     2.0399     0.3972
  649   12.960   2988.13     1.7938     0.0525     0.9736     0.1296     2.1996     2.8829   207.3600     1.9922     0.4199
  650   12.980   2989.13     1.7345     0.0505     1.0210     0.1298     2.1576     2.8440   207.6800     1.9499     0.4501
  651   13.000   2990.16     1.6312     0.0484     0.9404     0.1300     2.0452     2.9713   208.0000     1.8372     0.4658
  652   13.020   2991.22     1.6838     0.0481     0.9004     0.1302     2.0627     2.8629   208.3200     1.8543     0.4162
  653   13.040   2992.20     1.6629     0.0471     0.9558     0.1304     2.0557     2.8318   208.6400     1.8471     0.4358
  654   13.060   2993.29     1.6298     0.0467     0.9342     0.1306     2.0281     2.8649   208.9600     1.8191     0.4494
  655   13.080   2994.25     1.6088     0.0429     0.9198     0.1308     1.9948     2.6581   209.2800     1.7855     0.4415
  656   13.100   2995.25     1.5606     0.0393     0.9476     0.1310     1.9532     2.4846   209.6000     1.7436     0.4610
  657   13.120   2996.24     1.4942     0.0379     0.9968     0.1312     1.9063     2.4808   209.9200     1.6964     0.5011
  658   13.140   2997.24     1.4518     0.0345     1.0054     0.1314     1.8749     2.3534   210.2400     1.6647     0.5262
  659   13.160   2998.29     1.4254     0.0344     1.0220     0.1316     1.8510     2.4111   210.5600     1.6405     0.5375
  660   13.180   2999.33     1.4515     0.0375     1.0444     0.1318     1.8881     2.5896   210.8800     1.6772     0.5411
  661   13.200   3000.36     1.5353     0.0396     1.0152     0.1320     1.9669     2.5876   211.2000     1.7557     0.5102
  662   13.220   3001.36     1.5924     0.0408     0.9794     0.1322     2.0130     2.5745   211.5200     1.8015     0.4825
  663   13.240   3002.31     1.6690     0.0443     0.9382     0.1324     2.0668     2.7022   211.8400     1.8550     0.4392
  664   13.260   3003.33     1.6755     0.0472     0.9338     0.1326     2.0662     2.8154   212.1600     1.8540     0.4303
  665   13.280   3004.37     1.6644     0.0518     0.9803     0.1328     2.0689     3.1136   212.4800     1.8564     0.4472
  666   13.300   3005.37     1.7026     0.0511     0.9789     0.1330     2.1146     3.0057   212.8000     1.9018     0.4460
  667   13.320   3006.39     1.7496     0.0508     0.9714     0.1332     2.1578     2.9104   213.1200     1.9447     0.4312
  668   13.340   3007.38     1.7670     0.0540     1.0069     0.1334     2.1864     3.0673   213.4400     1.9729     0.4385
  669   13.360   3008.38     1.7829     0.0574     1.0136     0.1336     2.2050     3.2227   213.7600     1.9912     0.4376
  670   13.380   3009.40     1.7906     0.0533     1.0199     0.1338     2.2219     2.9977   214.0800     2.0078     0.4448
  671   13.400   3010.42     1.8408     0.0517     0.9861     0.1340     2.2606     2.8353   214.4000     2.0462     0.4229
  672   13.420   3011.43     1.8771     0.0520     0.9752     0.1342     2.2840     2.7848   214.7200     2.0693     0.4034
  673   13.440   3012.49     1.8783     0.0549     1.0315     0.1344     2.3035     2.9246   215.0400     2.0885     0.4204
  674   13.460   3013.46     1.9130     0.0577     1.0696     0.1346     2.3601     3.0206   215.3600     2.1447     0.4336
  675   13.480   3014.50     1.9820     0.0588     1.0039     0.1348     2.4156     3.0132   215.6800     2.1999     0.4080
  676   13.500   3015.51     2.0523     0.0604     0.9976     0.1350     2.4651     2.9635   216.0000     2.2491     0.3769
  677   13.520   3016.55     2.1093     0.0641     0.9942     0.1352     2.5280     3.0450   216.3200     2.3117     0.3728
  678   13.540   3017.54     2.1374     0.0654     1.0043     0.1354     2.5529     3.0602   216.6400     2.3363     0.3656
  679   13.560   3018.53     2.1247     0.0657     1.0183     0.1356     2.5489     3.1118   216.9600     2.3319     0.3750
  680   13.580   3019.57     2.1071     0.0669     1.0211     0.1358     2.5326     3.1730   217.2800     2.3153     0.3789
  681   13.600   3020.61     2.0169     0.0643     1.0268     0.1360     2.4476     3.1811   217.6000     2.2300     0.3989
  682   13.620   3021.61     1.9845     0.0638     1.0265     0.1362     2.4172     3.2117   217.9200     2.1992     0.4065
  683   13.640   3022.61     2.0110     0.0631     0.9829     0.1364     2.4329     3.1505   218.2400     2.2146     0.3919
  684   13.660   3023.62     1.9787     0.0630     0.9899     0.1366     2.3883     3.1768   218.5600     2.1698     0.3865
  685   13.680   3024.62     1.9080     0.0614     1.0156     0.1368     2.3385     3.1741   218.8800     2.1196     0.4190
  686   13.700   3025.65     1.9260     0.0581     1.0172     0.1370     2.3524     3.0302   219.2000     2.1332     0.4117
  687   13.720   3026.70     1.9189     0.0573     1.0325     0.1372     2.3468     2.9816   219.5200     2.1272     0.4144
  688   13.740   3027.70     1.8498     0.0577     1.0788     0.1374     2.2967     3.0649   219.8400     2.0768     0.4461
  689   13.760   3028.68     1.8141     0.0589     1.1007     0.1376     2.2679     3.2439   220.1600     2.0477     0.4604
  690   13.780   3029.71     1.8166     0.0581     1.0699     0.1378     2.2770     3.2094   220.4800     2.0565     0.4661
  691   13.800   3030.74     1.8710     0.0560     1.0264     0.1380     2.3096     3.0091   220.8000     2.0888     0.4339
  692   13.820   3031.75     1.8315     0.0527     1.0561     0.1382     2.2688     2.8414   221.1200     2.0477     0.4410
  693   13.840   3032.78     1.7932     0.0525     1.0048     0.1384     2.2252     2.9231   221.4400     2.0038     0.4442
  694   13.860   3033.77     1.7851     0.0520     1.0009     0.1386     2.1988     2.9064   221.7600     1.9770     0.4282
  695   13.880   3034.79     1.7482     0.0525     1.0342     0.1388     2.1795     2.9942   222.0800     1.9574     0.4537
  696   13.900   3035.81     1.7073     0.0544     1.0221     0.1390     2.1430     3.1526   222.4000     1.9206     0.4678
  697   13.920   3036.83     1.7141     0.0519     0.9180     0.1392     2.1211     3.0516   222.7200     1.8984     0.4371
  698   13.940   3037.85     1.6937     0.0495     0.8894     0.1394     2.0600     2.8827   223.0400     1.8370     0.3992
  699   13.960   3038.81     1.6087     0.0488     0.9117     0.1396     1.9871     2.9724   223.3600     1.7637     0.4317
  700   13.980   3039.84     1.5689     0.0482     0.9219     0.1398     1.9564     3.0505   223.6800     1.7327     0.4517
  701   14.000   3040.91     1.4985     0.0435     0.9302     0.1400     1.8891     2.8342   224.0000     1.6651     0.4745
  702   14.020   3041.95     1.4493     0.0415     0.9229     0.1402     1.8381     2.8402   224.3200     1.6138     0.4868
  703   14.040   3042.93     1.4374     0.0399     0.9266     0.1404     1.8260     2.7600   224.6400     1.6013     0.4901
  704   14.060   3043.93     1.4130     0.0382     0.9259     0.1406     1.8019     2.6937   224.9600     1.5770     0.4981
  705   14.080   3044.96     1.4033     0.0363     0.9227     0.1408     1.7920     2.5663   225.2800     1.5667     0.5009
  706   14.100   3046.00     1.3583     0.0321     0.9158     0.1410     1.7439     2.3497   225.6000     1.5183     0.5118
  707   14.120   3047.04     1.3023     0.0306     0.9282     0.1412     1.6892     2.3351   225.9200     1.4633     0.5330
  708   14.140   3048.02     1.2515     0.0318     0.9288     0.1414     1.6431     2.5357   226.2400     1.4169     0.5583
  709   14.160   3049.02     1.2215     0.0314     0.9333     0.1416     1.6123     2.5378   226.5600     1.3857     0.5693
  710   14.180   3050.11     1.2213     0.0299     0.9388     0.1418     1.6137     2.4533   226.8800     1.3868     0.5715
  711   14.200   3051.12     1.2628     0.0296     0.9222     0.1420     1.6570     2.3605   227.2000     1.4298     0.5571
  712   14.220   3067.15     1.3598     0.0291     0.9068     0.1422     1.7429     2.2659   227.5200     1.5154     0.5092
  713   14.240   3079.50     1.4376     0.0291     0.9005     0.1424     1.8135     2.0794   227.8400     1.5856     0.4746
  714   14.260   3080.61     1.4353     0.0286     0.9257     0.1426     1.8230     1.9759   228.1600     1.5948     0.4893
  715   14.280   3081.63     1.5081     0.0266     0.9072     0.1428     1.8935     1.8102   228.4800     1.6650     0.4654
  716   14.300   3082.63     1.5529     0.0258     0.8923     0.1430     1.9314     1.6744   228.8000     1.7026     0.4454
  717   14.320   3083.62     1.5474     0.0273     0.8777     0.1432     1.9201     1.7457   229.1200     1.6910     0.4401
  718   14.340   3084.62     1.5265     0.0277     0.8766     0.1434     1.8915     1.7945   229.4400     1.6621     0.4366
  719   14.360   3085.74     1.6528     0.0280     0.8599     0.1436     2.0194     1.7161   229.7600     1.7896     0.4076
  720   14.380   3086.75     1.8066     0.0275     0.7639     0.1438     2.1429     1.5617   230.0800     1.9128     0.3436
  721   14.400   3087.78     1.9079     0.0284     0.7197     0.1440     2.2187     1.5200   230.4000     1.9883     0.2997
  722   14.420   3088.82     1.9009     0.0266     0.7324     0.1442     2.2075     1.3940   230.7200     1.9768     0.2964
  723   14.440   3089.80     1.8735     0.0295     0.7312     0.1444     2.1818     1.5619   231.0400     1.9508     0.3022
  724   14.460   3090.77     1.9569     0.0312     0.7267     0.1446     2.2643     1.6425   231.3600     2.0330     0.2889
  725   14.480   3091.82     2.0066     0.0302     0.6429     0.1448     2.2946     1.5103   231.6800     2.0629     0.2623
  726   14.500   3092.88     2.0794     0.0314     0.6367     0.1450     2.3447     1.5046   232.0000     2.1127     0.2303
  727   14.520   3093.91     2.0518     0.0288     0.6426     0.1452     2.3187     1.4021   232.3200     2.0863     0.2350
  728   14.540   3094.92     1.9894     0.0272     0.6422     0.1454     2.2583     1.3559   232.6400     2.0257     0.2444
  729   14.560   3095.93     2.0969     0.0265     0.6518     0.1456     2.3704     1.2679   232.9600     2.1374     0.2366
  730   14.580   3096.92     2.1248     0.0264     0.6551     0.1458     2.4001     1.2452   233.2800     2.1668     0.2352
  731   14.600   3097.92     2.2126     0.0266     0.6202     0.1460     2.4800     1.2264   233.6000     2.2464     0.2185
  732   14.620   3098.99     2.1432     0.0241     0.6080     0.1462     2.3975     1.1225   233.9200     2.1636     0.2123
  733   14.640   3100.01     1.9760     0.0237     0.6126     0.1464     2.2329     1.1979   234.2400     1.9986     0.2328
  734   14.660   3101.02     1.9313     0.0221     0.6178     0.1466     2.1886     1.1405   234.5600     1.9541     0.2385
  735   14.680   3101.97     1.8350     0.0202     0.6476     0.1468     2.1043     1.0751   234.8800     1.8695     0.2645
  736   14.700   3103.04     1.8357     0.0210     0.6368     0.1470     2.1031     1.1538   235.2000     1.8679     0.2622
  737   14.720   3104.04     1.7394     0.0225     0.6761     0.1472     2.0170     1.2414   235.5200     1.7815     0.2886
  738   14.740   3105.08     1.7521     0.0240     0.6906     0.1474     2.0406     1.4065   235.8400     1.8048     0.2989
  739   14.760   3106.10     1.8692     0.0323     0.7034     0.1476     2.1691     1.8077   236.1600     1.9329     0.2930
  740   14.780   3107.18     2.4446     0.0325     0.6532     0.1478     2.7204     1.3496   236.4800     2.4840     0.2050
  741   14.800   3108.16     2.9093     0.0302     0.6243     0.1480     3.1815     1.1215   236.8000     2.9447     0.1699
  742   14.820   3109.21     3.4034     0.0321     0.5624     0.1482     3.6492     1.0084   237.1200     3.4121     0.1281
  743   14.840   3110.23     3.7450     0.0356     0.4495     0.1484     3.9474     0.9926   237.4400     3.7099     0.0899
  744   14.860   3111.22     3.8729     0.0301     0.3779     0.1486     4.0394     0.7830   237.7600     3.8016     0.0652
  745   14.880   3112.22     3.8615     0.0281     0.3383     0.1488     4.0052     0.7246   238.0800     3.7671     0.0513
  746   14.900   3113.31     3.7410     0.0314     0.3576     0.1490     3.8936     0.8290   238.4000     3.6552     0.0586
  747   14.920   3114.34     3.7513     0.0355     0.3334     0.1492     3.8942     0.9442   238.7200     3.6554     0.0523
  748   14.940   3115.36     3.6590     0.0358     0.3337     0.1494     3.7988     0.9753   239.0400     3.5598     0.0516
  749   14.960   3116.38     3.3286     0.0325     0.3687     0.1496     3.4757     0.9512   239.3600     3.2363     0.0621
  750   14.980   3117.37     2.9250     0.0355     0.3978     0.1498     3.0881     1.1363   239.6800     2.8484     0.0840
  751   15.000   3118.37     2.5489     0.0387     0.4820     0.1500     2.7407     1.4329   240.0000     2.5007     0.1230
  752   15.020   3119.40     2.3622     0.0417     0.5426     0.1502     2.5789     1.7188   240.3200     2.3385     0.1566
  753   15.040   3120.48     2.3593     0.0546     0.5870     0.1504     2.5990     2.3669   240.6400     2.3584     0.1783
  754   15.060   3121.47     2.5863     0.0677     0.6289     0.1506     2.8466     2.7822   240.9600     2.6057     0.1803
  755   15.080   3122.50     3.1595     0.0839     0.6209     0.1508     3.4260     2.7937   241.2800     3.1847     0.1521
  756   15.100   3123.53     3.8267     0.0925     0.4995     0.1510     4.0547     2.5137   241.6000     3.8131     0.1034
  757   15.120   3124.54     4.8160     0.0910     0.3875     0.1512     4.9902     1.9139   241.9200     4.7482     0.0558
  758   15.140   3125.60     6.1393     0.0825     0.3175     0.1514     6.2828     1.3866   242.2400     6.0405     0.0315
  759   15.160   3126.74     8.4614     0.0822     0.2520     0.1516     8.5817     1.0161   242.5600     8.3391     0.0163
  760   15.180   3127.77    11.6146     0.0803     0.0363     0.1518    11.6653     0.7377   242.8800    11.4224    -0.0025
  761   15.200   3128.89    14.9910     0.0850    -0.0701     0.1520    14.9733     0.6050   243.2000    14.7301    -0.0131
  762   15.220   3130.03    18.3371     0.0833    -0.1270     0.1522    18.2934     0.4867   243.5200    18.0498    -0.0142
  763   15.240   3131.17    21.5399     0.0861    -0.1373     0.1524    21.4821     0.4260   243.8400    21.2383    -0.0137
  764   15.260   3132.22    24.1409     0.0966    -0.1418     0.1526    24.0837     0.4213   244.1600    23.8396    -0.0121
  765   15.280   3133.15    26.5346     0.1150    -0.1528     0.1528    26.4734     0.4510   244.4800    26.2289    -0.0114
  766   15.300   3134.22    28.9310     0.1406    -0.1334     0.1530    28.8756     0.5026   244.8000    28.6308    -0.0100
  767   15.320   3135.26    30.2584     0.1720    -0.1129     0.1532    30.2061     0.5772   245.1200    29.9610    -0.0093
  768   15.340   3136.27    31.0770     0.2036    -0.1003     0.1534    31.0343     0.6558   245.4400    30.7888    -0.0083
  769   15.360   3137.35    31.3584     0.2221    -0.0943     0.1536    31.3191     0.7083   245.7600    31.0734    -0.0080
  770   15.380   3138.35    31.1075     0.2243    -0.0699     0.1538    31.0710     0.7204   246.0800    30.8249    -0.0078
  771   15.400   3139.35    30.6853     0.2181    -0.0611     0.1540    30.6603     0.7100   246.4000    30.4139    -0.0070
  772   15.420   3140.35    30.2284     0.2152    -0.0290     0.1542    30.2114     0.7115   246.7200    29.9647    -0.0065
  773   15.440   3141.31    30.1377     0.2124    -0.0056     0.1544    30.1347     0.7049   247.0400    29.8877    -0.0054
  774   15.460   3142.30    30.5064     0.1982    -0.0097     0.1546    30.5078     0.6527   247.3600    30.2604    -0.0050
  775   15.480   3143.36    31.3140     0.1820    -0.0158     0.1548    31.3112     0.5873   247.6800    31.0636    -0.0052
  776   15.500   3144.36    32.3331     0.1698     0.0023     0.1550    32.3311     0.5290   248.0000    32.0831    -0.0050
  777   15.520   3145.36    33.7119     0.1667    -0.0053     0.1552    33.7131     0.4999   248.3200    33.4648    -0.0045
  778   15.540   3146.48    35.4683     0.1584    -0.0627     0.1554    35.4477     0.4537   248.6400    35.1991    -0.0058
  779   15.560   3147.60    37.2763     0.1445    -0.0784     0.1556    37.2477     0.3940   248.9600    36.9988    -0.0060
  780   15.580   3148.66    38.6124     0.1394    -0.0763     0.1558    38.5820     0.3657   249.2800    38.3328    -0.0059
  781   15.600   3149.72    39.9175     0.1421    -0.0580     0.1560    39.8856     0.3601   249.6000    39.6360    -0.0059
  782   15.620   3150.74    40.8592     0.1398    -0.0875     0.1562    40.8267     0.3446   249.9200    40.5768    -0.0058
  783   15.640   3151.77    41.4110     0.1367    -0.1556     0.1564    41.3551     0.3310   250.2400    41.1049    -0.0070
  784   15.660   3152.78    41.6315     0.1358    -0.1625     0.1566    41.5644     0.3265   250.5600    41.3139    -0.0077
  785   15.680   3153.92    41.6430     0.1314    -0.1452     0.1568    41.5777     0.3161   250.8800    41.3268    -0.0076
  786   15.700   3154.98    41.7351     0.1323    -0.1437     0.1570    41.6742     0.3173   251.2000    41.4230    -0.0073
  787   15.720   3155.99    41.9261     0.1355    -0.1233     0.1572    41.8684     0.3241   251.5200    41.6169    -0.0071
  788   15.740   3157.10    42.6368     0.1436    -0.1038     0.1574    42.5936     0.3387   251.8400    42.3417    -0.0061
  789   15.760   3158.08    43.2981     0.1421    -0.1310     0.1576    43.2484     0.3291   252.1600    42.9963    -0.0064
  790   15.780   3159.11    43.9109     0.1205    -0.1439     0.1578    43.8531     0.2750   252.4800    43.6006    -0.0068
  791   15.800   3160.30    44.7211     0.0978    -0.1363     0.1580    44.6661     0.2193   252.8000    44.4133    -0.0065
  792   15.820   3161.34    45.4146               -0.1682     0.1582    45.3467              253.1200    45.0936    -0.0071
  793   15.840   3162.39    46.3725               -0.1743     0.1584    46.3000              253.4400    46.0466    -0.0072
  794   15.860   3163.45    47.5957               -0.1797     0.1586    47.5192              253.7600    47.2655    -0.0072
  795   15.880   3164.53    49.1660               -0.1741     0.1588    49.0917              254.0800    48.8376    -0.0069
  796   15.900   3165.71    50.5965               -0.1601     0.1590    50.5268              254.4000    50.2724    -0.0065
  797   15.909   3166.16    51.0325                           0.1591    50.9659              254.5375    50.7114    -0.0063
 
 
