

 Program UNIPLOT                         version 05.36.02
 _______________
 (c) Fugro Netherlands Marine, Nootdorp, The Netherlands


 ASCII representation of data plotted on a graph.

 This ASCII file presents data interpolated to values per fixed depth interval.
 The data are corrected for the depth-offset differences between the various 
 transducers in the penetrometer.

 The records at the start of penetration may include no values or anomalous
 values where a depth offset implies incomplete penetration of a particular
 sensor into the ground.

 The records at the end of penetration may include no values for data channels
 where the transducer did not reach this depth.

 The reference level for test values is (1) the ground surface for onshore tests and (2) the seafloor for nearshore and offshore tests.

 UNICAS data file          : CPT-2032.002                            
 Output using command file : PlotASCII.cmd

 ASCII file created at : date          :16-Dec-2021
                         time          :13:37:34
 Project number                        :20024805
 Date of testing                       :15-Dec-2021
 Location                              :Hong Kong Offshore Wind Farm Project
 Test name                             :CPT-2032
 Penetrometer                          :F7.5CKE2HAW2/B/3284
 Serial no                             :1701-3284

 Table description:
 Column ID                             :Parameter name
 ___________________________________________________________________________________
 Rec                                   :Record ID, Record ID [-]
 Depth                                 :Depth, Depth [m]
 Time                                  :Time, Time [s]
 Cone                                  :Cone Resistance, Cone Resistance [MPa]
 Friction                              :Sleeve Friction, Sleeve Friction [MPa]
 Pore 2                                :Porewater Pressure, Porewater Pressure at Shoulder [MPa]
 HydroPress                            :Hydrostatic Pressure, Hydrostatic Pressure [MPa]
 qt                                    :Total Cone Resistance, Total Cone Resistance [MPa]
 Fric_ratio                            :Friction Ratio, Friction Ratio [%]
 SigmaVert                             :Vertical stress, Vertical stress [kPa] as specified in ground model
 Qnet                                  :Net Cone Resistance, Net Cone Resistance [MPa], unit weight as specified in ground model
 Bq                                    :Porewater Pressure Ratio, Porewater Pressure Ratio [-], unit weight as specified in ground model


 Data table:
  Rec    Depth      Time       Cone   Friction     Pore 2 HydroPress         qt Fric_ratio  SigmaVert       Qnet         Bq
   No        m         s        MPa        MPa        MPa        MPa        MPa          %        kPa        MPa          -
    1    0.000    314.75     0.0000                           0.0000     0.0000                0.0000     0.0000           
    2    0.020    315.74     0.0057                0.0012     0.0002     0.0061                0.3200     0.0058     0.1546
    3    0.040    316.68     0.0068                0.0014     0.0004     0.0074                0.6400     0.0067     0.1440
    4    0.060    317.62     0.0065     0.0012     0.0017     0.0006     0.0071    44.1628     0.9600     0.0062     0.2016
    5    0.080    318.58     0.0073     0.0015     0.0019     0.0008     0.0080    19.0027     1.2800     0.0068     0.1588
    6    0.100    319.54     0.0085     0.0011     0.0024     0.0010     0.0095    14.2313     1.6000     0.0079     0.1516
    7    0.120    320.53     0.0099     0.0010     0.0025     0.0012     0.0109     9.0923     1.9200     0.0090     0.1497
    8    0.140    532.29     0.0103     0.0012     0.0021     0.0014     0.0113    14.4160     2.2400     0.0090     0.1016
    9    0.160    633.91     0.0138     0.0008     0.0007     0.0016     0.0143     6.2212     2.5600     0.0118    -0.0257
   10    0.180    634.88     0.0149     0.0010     0.0005     0.0018     0.0152     7.3135     2.8800     0.0123    -0.0981
   11    0.200    635.85     0.0137     0.0010     0.0024     0.0020     0.0145     8.1358     3.2000     0.0113    -0.0185
   12    0.220    636.84     0.0105     0.0009     0.0037     0.0022     0.0118     7.5023     3.5200     0.0083     0.0951
   13    0.240    637.77     0.0147     0.0008     0.0042     0.0024     0.0163     5.3794     3.8400     0.0124     0.1094
   14    0.260    638.74     0.0142     0.0005     0.0047     0.0026     0.0161     3.9980     4.1600     0.0119     0.1552
   15    0.280    639.71     0.0134     0.0003     0.0054     0.0028     0.0155     1.9435     4.4800     0.0110     0.1911
   16    0.300    640.67     0.0128     0.0004     0.0057     0.0030     0.0151     2.4199     4.8000     0.0103     0.2528
   17    0.320    641.64     0.0135     0.0002     0.0063     0.0032     0.0161     1.2171     5.1200     0.0110     0.2733
   18    0.340    642.60     0.0143     0.0002     0.0058     0.0034     0.0170     1.6130     5.4400     0.0116     0.2642
   19    0.360    643.53     0.0135     0.0003     0.0067     0.0036     0.0160     1.9842     5.7600     0.0102     0.2254
   20    0.380    644.49     0.0150     0.0010     0.0074     0.0038     0.0179     6.5233     6.0800     0.0118     0.2599
   21    0.400    645.45     0.0144     0.0007     0.0080     0.0040     0.0177     4.3506     6.4000     0.0113     0.3413
   22    0.420    646.42     0.0166     0.0008     0.0093     0.0042     0.0203     4.9187     6.7200     0.0136     0.3478
   23    0.440    668.40     0.0160     0.0011     0.0100     0.0044     0.0202     6.8142     7.0400     0.0131     0.4146
   24    0.460    820.39     0.0166     0.0009     0.0103     0.0046     0.0209     5.4197     7.3600     0.0135     0.4149
   25    0.480    927.59     0.0184     0.0009     0.0087     0.0048     0.0224     5.1460     7.6800     0.0147     0.3236
   26    0.500    928.59     0.0226     0.0012     0.0086     0.0050     0.0260     6.2568     8.0000     0.0180     0.1772
   27    0.520    929.54     0.0210     0.0008     0.0108     0.0052     0.0252     3.7379     8.3200     0.0169     0.2952
   28    0.540    930.50     0.0227     0.0006     0.0127     0.0054     0.0278     2.3698     8.6400     0.0191     0.3591
   29    0.560    931.48     0.0203     0.0007     0.0145     0.0056     0.0262     3.4203     8.9600     0.0172     0.4895
   30    0.580    932.41     0.0242     0.0007     0.0155     0.0058     0.0305     3.1061     9.2800     0.0212     0.4382
   31    0.600    933.37     0.0217     0.0005     0.0167     0.0060     0.0284     2.2184     9.6000     0.0188     0.5310
   32    0.620    934.35     0.0245     0.0004     0.0166     0.0062     0.0312     1.6245     9.9200     0.0213     0.4623
   33    0.640    935.31     0.0261     0.0002     0.0175     0.0064     0.0333     0.7239    10.2400     0.0231     0.4688
   34    0.660    936.28     0.0206     0.0005     0.0178     0.0066     0.0280     1.8724    10.5600     0.0175     0.6411
   35    0.680    937.24     0.0228     0.0007     0.0167     0.0068     0.0299     2.8634    10.8800     0.0191     0.5323
   36    0.700    938.20     0.0244     0.0011     0.0160     0.0070     0.0311     4.6567    11.2000     0.0199     0.4536
   37    0.720    939.15     0.0234     0.0010     0.0166     0.0072     0.0301     4.2334    11.5200     0.0185     0.4723
   38    0.740    940.11     0.0266     0.0010     0.0185     0.0074     0.0341     3.5873    11.8400     0.0222     0.4729
   39    0.760    941.07     0.0200     0.0011     0.0200     0.0076     0.0282     5.5006    12.1600     0.0161     0.7637
   40    0.780    942.02     0.0220     0.0010     0.0205     0.0078     0.0307     5.4425    12.4800     0.0182     0.7140
   41    0.800   1160.98     0.0208     0.0009     0.0184     0.0080     0.0286     3.7709    12.8000     0.0158     0.6597
   42    0.820   1162.18     0.0317     0.0007     0.0158     0.0082     0.0389     3.2245    13.1200     0.0258     0.3644
   43    0.840   1163.18     0.0337     0.0003     0.0175     0.0084     0.0404     0.8265    13.4400     0.0270     0.2815
   44    0.860   1164.12     0.0276     0.0003     0.0212     0.0086     0.0361     1.0262    13.7600     0.0223     0.5249
   45    0.880   1165.09     0.0293     0.0006     0.0235     0.0088     0.0389     1.7553    14.0800     0.0248     0.5704
   46    0.900   1166.05     0.0291     0.0006     0.0238     0.0090     0.0392     2.1168    14.4000     0.0248     0.6079
   47    0.920   1166.99     0.0309     0.0009     0.0214     0.0092     0.0404     3.0821    14.7200     0.0257     0.5284
   48    0.940   1167.97     0.0293     0.0012     0.0209     0.0094     0.0382     3.7907    15.0400     0.0231     0.5036
   49    0.960   1168.88     0.0274     0.0007     0.0223     0.0096     0.0366     2.7483    15.3600     0.0212     0.5787
   50    0.980   1169.85     0.0300     0.0008     0.0234     0.0098     0.0396     2.5294    15.6800     0.0239     0.5564
   51    1.000   1268.40     0.0249     0.0006     0.0247     0.0100     0.0351     2.2465    16.0000     0.0191     0.7499
   52    1.020   1445.29     0.0234     0.0006     0.0258     0.0102     0.0341     2.5395    16.3200     0.0178     0.8649
   53    1.040   1470.91     0.0270     0.0006     0.0266     0.0104     0.0379     2.1679    16.6400     0.0212     0.7246
   54    1.060   1471.87     0.0356     0.0004     0.0274     0.0106     0.0467     1.3447    16.9600     0.0297     0.5343
   55    1.080   1472.85     0.0365     0.0006     0.0295     0.0108     0.0486     1.6462    17.2800     0.0313     0.5776
   56    1.100   1473.84     0.0355     0.0007     0.0302     0.0110     0.0481     2.1196    17.6000     0.0305     0.6224
   57    1.120   1474.78     0.0362     0.0003     0.0326     0.0112     0.0495     0.6293    17.9200     0.0316     0.6475
   58    1.140   1475.72     0.0475     0.0009     0.0350     0.0114     0.0619     1.8575    18.2400     0.0437     0.5247
   59    1.160   1476.71     0.0465     0.0010     0.0375     0.0116     0.0619     2.2124    18.5600     0.0434     0.5826
   60    1.180   1477.68     0.0515     0.0007     0.0369     0.0118     0.0673     1.3440    18.8800     0.0484     0.5309
   61    1.200   1478.60     0.0544     0.0006     0.0361     0.0120     0.0697     1.2019    19.2000     0.0505     0.4814
   62    1.220   1479.59     0.0577     0.0010     0.0355     0.0122     0.0725     1.8264    19.5200     0.0530     0.4382
   63    1.240   1771.73     0.0560     0.0016     0.0371     0.0124     0.0713     2.7595    19.8400     0.0515     0.4714
   64    1.260   2004.35     0.0496     0.0013     0.0352     0.0126     0.0654     2.5842    20.1600     0.0452     0.5531
   65    1.280   2005.30     0.0884     0.0012     0.0258     0.0128     0.1001     1.4646    20.4800     0.0796     0.1900
   66    1.300   2006.25     0.0893     0.0013     0.0290     0.0130     0.1007     1.4792    20.8000     0.0799     0.1782
   67    1.320   2007.26     0.0869     0.0013     0.0318     0.0132     0.0998     1.4440    21.1200     0.0787     0.2241
   68    1.340   2008.22     0.0836     0.0008     0.0354     0.0134     0.0979     0.9405    21.4400     0.0764     0.2699
   69    1.360   2009.15     0.0790     0.0007     0.0395     0.0136     0.0950     0.9107    21.7600     0.0732     0.3345
   70    1.380   2010.12     0.0855     0.0006     0.0439     0.0138     0.1032     0.6758    22.0800     0.0812     0.3498
   71    1.400   2011.06     0.0864     0.0007     0.0489     0.0140     0.1062     0.8522    22.4000     0.0838     0.3958
   72    1.420   2012.01     0.0929     0.0005     0.0539     0.0142     0.1149     0.5270    22.7200     0.0922     0.4149
   73    1.440   2013.64     0.0882     0.0005     0.0605     0.0144     0.1131     0.4558    23.0400     0.0901     0.5052
   74    1.460   2014.64     0.1124     0.0006     0.0650     0.0146     0.1390     0.5272    23.3600     0.1156     0.4220
   75    1.480   2015.60     0.1247     0.0004     0.0678     0.0148     0.1529     0.3473    23.6800     0.1292     0.4058
   76    1.500   2016.55     0.1303     0.0002     0.0668     0.0150     0.1587     0.1675    24.0000     0.1347     0.3915
   77    1.520   2017.52     0.1369     0.0006     0.0597     0.0152     0.1626     0.4400    24.3200     0.1383     0.3334
   78    1.540   2018.48     0.1482     0.0003     0.0567     0.0154     0.1715     0.2136    24.6400     0.1469     0.2727
   79    1.560   2019.51     0.1561     0.0006     0.0569     0.0156     0.1801     0.3848    24.9600     0.1551     0.2678
   80    1.580   2028.94     0.1630     0.0008     0.0542     0.0158     0.1862     0.5424    25.2800     0.1609     0.2462
   81    1.600   2039.97     0.1711     0.0008     0.0515     0.0160     0.1931     0.4820    25.6000     0.1675     0.2191
   82    1.620   2048.64     0.1782     0.0008     0.0587     0.0162     0.1992     0.4895    25.9200     0.1732     0.1939
   83    1.640   2050.61     0.1612     0.0017     0.0493     0.0164     0.1837     1.2878    26.2400     0.1574     0.2426
   84    1.660   2051.57     0.1794     0.0025     0.0485     0.0166     0.1999     1.4001    26.5600     0.1733     0.1864
   85    1.680   2052.53     0.1808     0.0024     0.0486     0.0168     0.2012     1.3497    26.8800     0.1743     0.1810
   86    1.700   2053.48     0.1841     0.0030     0.0475     0.0170     0.2043     1.6721    27.2000     0.1771     0.1759
   87    1.720   2054.49     0.1873     0.0037     0.0456     0.0172     0.2066     1.9768    27.5200     0.1791     0.1596
   88    1.740   2055.44     0.1929     0.0041     0.0456     0.0174     0.2118     2.1773    27.8400     0.1840     0.1507
   89    1.760   2056.40     0.1979     0.0035     0.0436     0.0176     0.2168     1.7741    28.1600     0.1886     0.1449
   90    1.780   2057.35     0.2012     0.0036     0.0446     0.0178     0.2194     1.7953    28.4800     0.1909     0.1341
   91    1.800   2058.31     0.1978     0.0031     0.0453     0.0180     0.2154     1.5483    28.8000     0.1866     0.1288
   92    1.820   2059.25     0.1803     0.0030     0.0491     0.0182     0.1999     1.6348    29.1200     0.1708     0.1666
   93    1.840   2060.21     0.1644     0.0031     0.0589     0.0184     0.1877     1.9387    29.4400     0.1583     0.2353
   94    1.860   2061.16     0.1586     0.0011     0.0680     0.0186     0.1858     0.6729    29.7600     0.1561     0.2970
   95    1.880   2062.12     0.1579     0.0069     0.0756     0.0188     0.1887     4.4032    30.0800     0.1586     0.3434
   96    1.900   2063.07     0.1612     0.0083     0.0788     0.0190     0.1940     5.1786    30.4000     0.1636     0.3619
   97    1.920   2064.01     0.1743     0.0091     0.0819     0.0192     0.2075     5.4566    30.7200     0.1768     0.3393
   98    1.940   2064.96     0.2198     0.0094     0.0848     0.0194     0.2550     5.0310    31.0400     0.2239     0.2913
   99    1.960   2065.93     0.3441     0.0093     0.0780     0.0196     0.3790     3.4072    31.3600     0.3477     0.1869
  100    1.980   2077.40     0.3224     0.0090     0.0267     0.0198     0.3413     2.0726    31.6800     0.3096     0.0494
  101    2.000   2088.65     0.2300     0.0081    -0.0072     0.0200     0.2370     3.6684    32.0000     0.2050    -0.0164
  102    2.020   2089.64     0.4289     0.0078    -0.0323     0.0202     0.4123     1.6968    32.3200     0.3800    -0.1577
  103    2.040   2090.60     0.2826     0.0071     0.0006     0.0204     0.2781     2.1680    32.6400     0.2455    -0.1242
  104    2.060   2091.58     0.2122     0.0067     0.0256     0.0206     0.2197     3.1018    32.9600     0.1868    -0.0148
  105    2.080   2092.54     0.1810     0.0063     0.0380     0.0208     0.1958     3.3285    33.2800     0.1625     0.0893
  106    2.100   2093.50     0.1606     0.0066     0.0513     0.0210     0.1804     3.9219    33.6000     0.1468     0.1778
  107    2.120   2094.45     0.1532     0.0066     0.0608     0.0212     0.1774     4.2204    33.9200     0.1435     0.2545
  108    2.140   2095.40     0.1496     0.0065     0.0659     0.0214     0.1769     4.3743    34.2400     0.1426     0.3058
  109    2.160   2096.38     0.1454     0.0066     0.0678     0.0216     0.1735     4.4717    34.5600     0.1389     0.3248
  110    2.180   2097.33     0.1432     0.0067     0.0694     0.0218     0.1722     4.6336    34.8800     0.1374     0.3449
  111    2.200   2098.30     0.1365     0.0065     0.0708     0.0220     0.1661     4.6833    35.2000     0.1309     0.3699
  112    2.220   2099.25     0.1361     0.0063     0.0722     0.0222     0.1663     4.6440    35.5200     0.1308     0.3809
  113    2.240   2100.17     0.1332     0.0060     0.0731     0.0224     0.1637     4.5246    35.8400     0.1279     0.3937
  114    2.260   2101.12     0.1305     0.0065     0.0739     0.0226     0.1615     4.9742    36.1600     0.1254     0.4083
  115    2.280   2102.13     0.1308     0.0059     0.0745     0.0228     0.1621     4.5602    36.4800     0.1256     0.4115
  116    2.300   2103.09     0.1288     0.0058     0.0743     0.0230     0.1599     4.5165    36.8000     0.1231     0.4148
  117    2.320   2104.04     0.1282     0.0058     0.0766     0.0232     0.1600     4.4955    37.1200     0.1229     0.4277
  118    2.340   2105.00     0.1280     0.0053     0.0769     0.0234     0.1602     4.1627    37.4400     0.1228     0.4337
  119    2.360   2105.96     0.1251     0.0053     0.0767     0.0236     0.1574     4.2178    37.7600     0.1196     0.4443
  120    2.380   2106.91     0.1275     0.0047     0.0776     0.0238     0.1598     3.7262    38.0800     0.1217     0.4371
  121    2.400   2107.84     0.1204     0.0053     0.0769     0.0240     0.1527     4.3836    38.4000     0.1143     0.4631
  122    2.420   2108.80     0.1231     0.0052     0.0765     0.0242     0.1553     4.1304    38.7200     0.1165     0.4483
  123    2.440   2109.76     0.1264     0.0055     0.0777     0.0244     0.1588     4.5304    39.0400     0.1198     0.4408
  124    2.460   2110.71     0.1409     0.0051     0.0759     0.0246     0.1729     3.8857    39.3600     0.1335     0.3866
  125    2.480   2111.67     0.1456     0.0045     0.0539     0.0248     0.1702     3.2316    39.6800     0.1305     0.2581
  126    2.500   2112.63     0.1435     0.0045     0.0620     0.0250     0.1683     3.1550    40.0000     0.1283     0.2642
  127    2.520   2113.59     0.1407     0.0050     0.0670     0.0252     0.1683     3.4783    40.3200     0.1280     0.3175
  128    2.540   2114.52     0.1437     0.0051     0.0695     0.0254     0.1722     3.5975    40.6400     0.1316     0.3236
  129    2.560   2115.48     0.1481     0.0055     0.0752     0.0256     0.1789     3.8049    40.9600     0.1380     0.3474
  130    2.580   2116.46     0.1543     0.0063     0.0662     0.0258     0.1835     4.1695    41.2800     0.1423     0.3090
  131    2.600   2117.43     0.1774     0.0067     0.0497     0.0260     0.2006     3.8900    41.6000     0.1590     0.1824
  132    2.620   2118.33     0.1665     0.0067     0.0510     0.0262     0.1877     3.9749    41.9200     0.1458     0.1668
  133    2.640   2119.28     0.1750     0.0065     0.0497     0.0264     0.1965     3.7991    42.2400     0.1543     0.1599
  134    2.660   2120.29     0.1815     0.0065     0.0520     0.0266     0.2019     3.4337    42.5600     0.1593     0.1368
  135    2.680   2121.22     0.1645     0.0065     0.0587     0.0268     0.1881     4.0507    42.8800     0.1452     0.2023
  136    2.700   2122.17     0.1563     0.0061     0.0658     0.0270     0.1828     3.9090    43.2000     0.1396     0.2584
  137    2.720   2123.13     0.1450     0.0065     0.0674     0.0272     0.1741     4.5047    43.5200     0.1306     0.3221
  138    2.740   2124.09     0.1568     0.0060     0.0585     0.0274     0.1819     3.8594    43.8400     0.1381     0.2348
  139    2.760   2125.07     0.1576     0.0053     0.0592     0.0276     0.1828     3.3655    44.1600     0.1387     0.2340
  140    2.780   2126.03     0.1525     0.0056     0.0603     0.0278     0.1776     3.5881    44.4800     0.1332     0.2411
  141    2.800   2126.98     0.1374     0.0054     0.0604     0.0280     0.1631     3.7892    44.8000     0.1183     0.2802
  142    2.820   2127.94     0.1244     0.0052     0.0559     0.0282     0.1483     3.9893    45.1200     0.1031     0.2783
  143    2.840   2128.91     0.1239     0.0049     0.0566     0.0284     0.1473     4.0803    45.4400     0.1018     0.2680
  144    2.860   2129.83     0.1189     0.0053     0.0616     0.0286     0.1433     4.5075    45.7600     0.0975     0.3019
  145    2.880   2130.79     0.1319     0.0058     0.0657     0.0288     0.1584     4.4324    46.0800     0.1123     0.3054
  146    2.900   2131.79     0.1338     0.0054     0.0665     0.0290     0.1623     4.0627    46.4000     0.1159     0.3360
  147    2.920   2132.75     0.1355     0.0055     0.0619     0.0292     0.1620     4.0409    46.7200     0.1153     0.2948
  148    2.940   2133.68     0.1380     0.0056     0.0582     0.0294     0.1627     4.0194    47.0400     0.1156     0.2541
  149    2.960   2134.67     0.1353     0.0057     0.0631     0.0296     0.1609     4.1282    47.3600     0.1136     0.2759
  150    2.980   2135.64     0.1279     0.0056     0.0668     0.0298     0.1554     4.2665    47.6800     0.1077     0.3310
  151    3.000   2136.60     0.1326     0.0057     0.0656     0.0300     0.1608     4.4538    48.0000     0.1128     0.3288
  152    3.020   2137.58     0.1346     0.0061     0.0614     0.0302     0.1612     4.5977    48.3200     0.1129     0.2931
  153    3.040   2138.52     0.1351     0.0060     0.0575     0.0304     0.1595     4.4473    48.6400     0.1108     0.2502
  154    3.060   2139.49     0.1325     0.0061     0.0623     0.0306     0.1574     4.5482    48.9600     0.1085     0.2657
  155    3.080   2140.45     0.1263     0.0060     0.0665     0.0308     0.1539     4.6793    49.2800     0.1046     0.3351
  156    3.100   2141.41     0.1187     0.0063     0.0669     0.0310     0.1464     5.1658    49.6000     0.0968     0.3604
  157    3.120   2142.36     0.1219     0.0054     0.0685     0.0312     0.1499     4.4487    49.9200     0.1000     0.3554
  158    3.140   2143.32     0.1189     0.0057     0.0724     0.0314     0.1489     4.7727    50.2400     0.0987     0.4073
  159    3.160   2144.26     0.1163     0.0059     0.0768     0.0316     0.1482     5.1277    50.5600     0.0977     0.4546
  160    3.180   2145.21     0.1218     0.0058     0.0789     0.0318     0.1544     4.9343    50.8800     0.1036     0.4426
  161    3.200   2146.18     0.1246     0.0058     0.0812     0.0320     0.1585     4.8142    51.2000     0.1073     0.4536
  162    3.220   2147.17     0.1343     0.0058     0.0747     0.0322     0.1671     4.5510    51.5200     0.1156     0.3983
  163    3.240   2148.12     0.1440     0.0059     0.0730     0.0324     0.1742     4.1651    51.8400     0.1224     0.3229
  164    3.260   2149.09     0.1487     0.0057     0.0774     0.0326     0.1807     3.9283    52.1600     0.1285     0.3380
  165    3.280   2150.03     0.1496     0.0057     0.0776     0.0328     0.1823     3.8023    52.4800     0.1298     0.3458
  166    3.300   2151.00     0.1418     0.0061     0.0784     0.0330     0.1750     4.2458    52.8000     0.1222     0.3772
  167    3.320   2151.99     0.1566     0.0060     0.0792     0.0332     0.1901     4.1534    53.1200     0.1370     0.3397
  168    3.340   2152.95     0.1642     0.0060     0.0687     0.0334     0.1965     3.8390    53.4400     0.1430     0.3054
  169    3.360   2153.90     0.1725     0.0060     0.0551     0.0336     0.1927     3.5247    53.7600     0.1389     0.1056
  170    3.380   2154.86     0.1572     0.0062     0.0661     0.0338     0.1832     3.9108    54.0800     0.1291     0.2166
  171    3.400   2155.81     0.1473     0.0064     0.0715     0.0340     0.1774     4.2802    54.4000     0.1230     0.3065
  172    3.420   2156.74     0.1485     0.0063     0.0747     0.0342     0.1798     4.2080    54.7200     0.1251     0.3223
  173    3.440   2171.91     0.1540     0.0065     0.0745     0.0344     0.1853     4.3639    55.0400     0.1303     0.3097
  174    3.460   2187.75     0.1598     0.0067     0.0744     0.0346     0.1910     4.4992    55.3600     0.1357     0.2942
  175    3.480   2198.14     0.1501     0.0062     0.0766     0.0348     0.1819     3.8192    55.6800     0.1262     0.3263
  176    3.500   2199.09     0.1524     0.0066     0.0733     0.0350     0.1834     4.3721    56.0000     0.1274     0.3051
  177    3.520   2200.03     0.1355     0.0064     0.0802     0.0352     0.1686     4.5912    56.3200     0.1123     0.3899
  178    3.540   2200.96     0.1341     0.0066     0.0820     0.0354     0.1687     4.8885    56.6400     0.1121     0.4183
  179    3.560   2201.92     0.1264     0.0064     0.0799     0.0356     0.1591     4.8643    56.9600     0.1021     0.4144
  180    3.580   2202.92     0.1267     0.0058     0.0837     0.0358     0.1615     4.6679    57.2800     0.1042     0.4507
  181    3.600   2203.88     0.1297     0.0058     0.0800     0.0360     0.1623     4.6176    57.6000     0.1047     0.3987
  182    3.620   2204.83     0.1391     0.0059     0.0859     0.0362     0.1755     4.3050    57.9200     0.1176     0.4290
  183    3.640   2205.79     0.1499     0.0064     0.0885     0.0364     0.1864     4.3441    58.2400     0.1281     0.3939
  184    3.660   2206.75     0.1562     0.0066     0.0855     0.0366     0.1928     4.2500    58.5600     0.1342     0.3765
  185    3.680   2207.70     0.1668     0.0065     0.0828     0.0368     0.2017     3.9923    58.8800     0.1428     0.3245
  186    3.700   2208.64     0.1670     0.0066     0.0873     0.0370     0.2030     3.9390    59.2000     0.1438     0.3383
  187    3.720   2209.55     0.1693     0.0070     0.0786     0.0372     0.2042     4.1441    59.5200     0.1447     0.3176
  188    3.740   2210.45     0.1648     0.0070     0.0798     0.0374     0.1980     4.1600    59.8400     0.1382     0.3018
  189    3.760   2211.45     0.1502     0.0065     0.0881     0.0376     0.1862     4.3122    60.1600     0.1260     0.3817
  190    3.780   2212.41     0.1442     0.0065     0.0870     0.0378     0.1812     4.4639    60.4800     0.1207     0.4168
  191    3.800   2213.37     0.1427     0.0063     0.0890     0.0380     0.1802     4.4569    60.8000     0.1194     0.4288
  192    3.820   2214.31     0.1459     0.0060     0.0920     0.0382     0.1840     4.1033    61.1200     0.1229     0.4269
  193    3.840   2215.20     0.1461     0.0060     0.0943     0.0384     0.1858     4.1375    61.4400     0.1243     0.4515
  194    3.860   2216.17     0.1502     0.0059     0.0911     0.0386     0.1890     3.9755    61.7600     0.1273     0.4225
  195    3.880   2217.12     0.1513     0.0065     0.0817     0.0388     0.1870     4.2663    62.0800     0.1249     0.3688
  196    3.900   2218.07     0.1528     0.0073     0.0796     0.0390     0.1863     4.7965    62.4000     0.1239     0.3293
  197    3.920   2218.98     0.1528     0.0074     0.0779     0.0392     0.1860     4.8590    62.7200     0.1233     0.3245
  198    3.940   2219.94     0.1570     0.0072     0.0803     0.0394     0.1899     4.6116    63.0400     0.1268     0.3074
  199    3.960   2220.86     0.1621     0.0074     0.0794     0.0396     0.1951     4.6283    63.3600     0.1318     0.2955
  200    3.980   2221.82     0.1624     0.0073     0.0820     0.0398     0.1959     4.4942    63.6800     0.1323     0.3034
  201    4.000   2222.82     0.1610     0.0072     0.0863     0.0400     0.1969     4.4099    64.0000     0.1329     0.3417
  202    4.020   2223.74     0.1555     0.0078     0.0848     0.0402     0.1915     4.9509    64.3200     0.1272     0.3583
  203    4.040   2224.69     0.1626     0.0073     0.0812     0.0404     0.1978     4.4328    64.6400     0.1331     0.3256
  204    4.060   2225.65     0.1652     0.0076     0.0798     0.0406     0.1983     4.4308    64.9600     0.1333     0.2859
  205    4.080   2226.54     0.1584     0.0073     0.0828     0.0408     0.1929     4.6488    65.2800     0.1276     0.3240
  206    4.100   2227.51     0.1616     0.0071     0.0869     0.0410     0.1976     4.3901    65.6000     0.1320     0.3385
  207    4.120   2228.52     0.1589     0.0071     0.0899     0.0412     0.1962     4.4178    65.9200     0.1303     0.3655
  208    4.140   2229.52     0.1539     0.0074     0.0929     0.0414     0.1928     4.8327    66.2400     0.1266     0.4047
  209    4.160   2230.40     0.1607     0.0071     0.0963     0.0416     0.2000     4.4260    66.5600     0.1334     0.3900
  210    4.180   2231.43     0.1535     0.0071     0.0929     0.0418     0.1933     4.6848    66.8800     0.1264     0.4196
  211    4.200   2232.38     0.1601     0.0074     0.0882     0.0420     0.1985     4.6183    67.2000     0.1313     0.3760
  212    4.220   2233.38     0.1624     0.0068     0.0952     0.0422     0.2008     4.2210    67.5200     0.1333     0.3695
  213    4.240   2234.34     0.1641     0.0071     0.0986     0.0424     0.2059     4.3013    67.8400     0.1381     0.4139
  214    4.260   2235.31     0.1693     0.0073     0.0984     0.0426     0.2108     4.3004    68.1600     0.1427     0.3941
  215    4.280   2236.30     0.1624     0.0074     0.0887     0.0428     0.2019     4.4233    68.4800     0.1334     0.3827
  216    4.300   2237.30     0.1665     0.0073     0.0741     0.0430     0.1989     4.4004    68.8000     0.1301     0.2629
  217    4.320   2238.18     0.1767     0.0075     0.0723     0.0432     0.2069     4.2823    69.1200     0.1378     0.2093
  218    4.340   2239.16     0.1672     0.0079     0.0714     0.0434     0.1969     4.6329    69.4400     0.1275     0.2144
  219    4.360   2240.22     0.1588     0.0078     0.0771     0.0436     0.1904     4.8847    69.7600     0.1207     0.2621
  220    4.380   2241.18     0.1603     0.0075     0.0790     0.0438     0.1940     4.5861    70.0800     0.1239     0.2937
  221    4.400   2242.15     0.1544     0.0073     0.0749     0.0440     0.1859     4.7453    70.4000     0.1155     0.2688
  222    4.420   2243.12     0.1514     0.0076     0.0815     0.0442     0.1844     5.0147    70.7200     0.1137     0.3024
  223    4.440   2244.08     0.1518     0.0072     0.0874     0.0444     0.1879     4.7114    71.0400     0.1169     0.3555
  224    4.460   2245.04     0.1471     0.0069     0.0899     0.0446     0.1848     4.6930    71.3600     0.1134     0.3987
  225    4.480   2246.01     0.1440     0.0073     0.0933     0.0448     0.1825     5.0582    71.6800     0.1108     0.4229
  226    4.500   2246.93     0.1443     0.0074     0.0927     0.0450     0.1834     5.1282    72.0000     0.1114     0.4310
  227    4.520   2247.84     0.1437     0.0071     0.0924     0.0452     0.1830     4.9091    72.3200     0.1106     0.4359
  228    4.540   2248.75     0.1491     0.0071     0.0905     0.0454     0.1877     4.7671    72.6400     0.1151     0.4038
  229    4.560   2249.85     0.1525     0.0069     0.0893     0.0456     0.1904     4.5028    72.9600     0.1174     0.3806
  230    4.580   2250.81     0.1496     0.0067     0.0965     0.0458     0.1899     4.4418    73.2800     0.1166     0.4297
  231    4.600   2251.76     0.1514     0.0069     0.1012     0.0460     0.1931     4.5830    73.6000     0.1195     0.4469
  232    4.620   2252.72     0.1606     0.0069     0.1028     0.0462     0.2038     4.4904    73.9200     0.1299     0.4363
  233    4.640   2253.68     0.1645     0.0072     0.1033     0.0464     0.2079     4.4148    74.2400     0.1336     0.4252
  234    4.660   2254.65     0.1671     0.0077     0.1003     0.0466     0.2099     4.7714    74.5600     0.1353     0.4096
  235    4.680   2255.61     0.1649     0.0078     0.0996     0.0468     0.2066     4.7022    74.8800     0.1317     0.3982
  236    4.700   2256.56     0.1649     0.0081     0.0964     0.0470     0.2060     4.9558    75.2000     0.1308     0.3887
  237    4.720   2257.57     0.1655     0.0077     0.0990     0.0472     0.2067     4.7593    75.5200     0.1312     0.3880
  238    4.740   2258.50     0.1668     0.0074     0.1009     0.0474     0.2089     4.4146    75.8400     0.1330     0.3970
  239    4.760   2259.39     0.1591     0.0076     0.1070     0.0476     0.2026     4.6650    76.1600     0.1264     0.4423
  240    4.780   2260.44     0.1511     0.0074     0.1132     0.0478     0.1978     4.8915    76.4800     0.1213     0.5226
  241    4.800   2261.43     0.1552     0.0075     0.1165     0.0480     0.2034     4.8299    76.8000     0.1266     0.5286
  242    4.820   2262.39     0.1531     0.0077     0.1191     0.0482     0.2030     5.0713    77.1200     0.1259     0.5599
  243    4.840   2263.36     0.1557     0.0076     0.1182     0.0484     0.2066     4.9566    77.4400     0.1292     0.5644
  244    4.860   2264.30     0.1555     0.0075     0.1159     0.0486     0.2045     4.8153    77.7600     0.1267     0.5359
  245    4.880   2265.24     0.1550     0.0075     0.1175     0.0488     0.2042     4.8357    78.0800     0.1261     0.5424
  246    4.900   2266.20     0.1535     0.0071     0.1165     0.0490     0.2025     4.6480    78.4000     0.1241     0.5438
  247    4.920   2267.15     0.1544     0.0072     0.1149     0.0492     0.2027     4.6827    78.7200     0.1240     0.5298
  248    4.940   2268.11     0.1485     0.0074     0.1192     0.0494     0.1981     4.9906    79.0400     0.1191     0.5771
  249    4.960   2269.13     0.1530     0.0076     0.1152     0.0496     0.2022     4.9796    79.3600     0.1229     0.5498
  250    4.980   2270.09     0.1566     0.0076     0.1132     0.0498     0.2042     4.8833    79.6800     0.1246     0.5102
  251    5.000   2270.95     0.1552     0.0076     0.1097     0.0500     0.2027     4.8717    80.0000     0.1227     0.5146
  252    5.020   2271.75     0.1527     0.0068     0.1101     0.0502     0.1986     4.3886    80.3200     0.1183     0.5004
  253    5.040   2272.61     0.1509     0.0075     0.1085     0.0504     0.1969     4.9639    80.6400     0.1162     0.5078
  254    5.060   2273.59     0.1501     0.0075     0.1097     0.0506     0.1959     4.9837    80.9600     0.1149     0.5080
  255    5.080   2274.57     0.1517     0.0072     0.1125     0.0508     0.1983     4.8479    81.2800     0.1170     0.5136
  256    5.100   2275.54     0.1494     0.0079     0.1178     0.0510     0.1987     5.2887    81.6000     0.1171     0.5663
  257    5.120   2276.49     0.1515     0.0074     0.1122     0.0512     0.1994     4.9644    81.9200     0.1175     0.5349
  258    5.140   2277.41     0.1544     0.0074     0.1134     0.0514     0.2019     4.8193    82.2400     0.1196     0.5144
  259    5.160   2278.40     0.1582     0.0076     0.1159     0.0516     0.2066     4.8303    82.5600     0.1240     0.5124
  260    5.180   2279.37     0.1564     0.0076     0.1101     0.0518     0.2036     4.8578    82.8800     0.1208     0.5017
  261    5.200   2280.41     0.1615     0.0075     0.1027     0.0520     0.2056     4.6058    83.2000     0.1224     0.4331
  262    5.220   2281.37     0.1533     0.0072     0.1030     0.0522     0.1973     4.6839    83.5200     0.1137     0.4618
  263    5.240   2282.33     0.1497     0.0068     0.1058     0.0524     0.1928     4.4412    83.8400     0.1090     0.4612
  264    5.260   2283.29     0.1438     0.0069     0.1191     0.0526     0.1925     4.7140    84.1600     0.1083     0.5833
  265    5.280   2284.24     0.1457     0.0072     0.1250     0.0528     0.1977     5.0511    84.4800     0.1132     0.6269
  266    5.300   2285.19     0.1504     0.0068     0.1202     0.0530     0.2022     4.6388    84.8000     0.1174     0.6006
  267    5.320   2286.16     0.1518     0.0068     0.1151     0.0532     0.2003     4.5709    85.1200     0.1152     0.5403
  268    5.340   2287.12     0.1473     0.0067     0.1141     0.0534     0.1956     4.5150    85.4400     0.1101     0.5585
  269    5.360   2288.01     0.1541     0.0072     0.1142     0.0536     0.2019     4.7995    85.7600     0.1161     0.5184
  270    5.380   2288.96     0.1558     0.0069     0.1145     0.0538     0.2040     4.4500    86.0800     0.1180     0.5185
  271    5.400   2290.02     0.1643     0.0065     0.1144     0.0540     0.2131     4.0811    86.4000     0.1267     0.4906
  272    5.420   2305.62     0.1703     0.0064     0.1076     0.0542     0.2164     3.8915    86.7200     0.1297     0.4306
  273    5.440   2323.41     0.1755     0.0060     0.1034     0.0544     0.2189     3.5113    87.0400     0.1318     0.3698
  274    5.460   2325.67     0.1699     0.0063     0.1052     0.0546     0.2141     3.6545    87.3600     0.1267     0.3988
  275    5.480   2326.63     0.1672     0.0067     0.1037     0.0548     0.2110     3.9495    87.6800     0.1233     0.4006
  276    5.500   2327.63     0.1591     0.0068     0.1009     0.0550     0.2022     4.3116    88.0000     0.1142     0.4186
  277    5.520   2328.64     0.1558     0.0079     0.1002     0.0552     0.1976     5.0980    88.3200     0.1093     0.4063
  278    5.540   2329.60     0.1588     0.0079     0.1010     0.0554     0.2007     5.0872    88.6400     0.1121     0.3958
  279    5.560   2330.58     0.1639     0.0078     0.1092     0.0556     0.2089     4.8465    88.9600     0.1199     0.4293
  280    5.580   2331.52     0.1824     0.0081     0.1058     0.0558     0.2282     4.5591    89.2800     0.1389     0.3834
  281    5.600   2332.45     0.2003     0.0082     0.1105     0.0560     0.2461     4.1731    89.6000     0.1565     0.3387
  282    5.620   2333.44     0.1993     0.0089     0.1103     0.0562     0.2453     4.4442    89.9200     0.1554     0.3433
  283    5.640   2334.46     0.2063     0.0089     0.1137     0.0564     0.2534     4.3498    90.2400     0.1631     0.3411
  284    5.660   2335.44     0.2087     0.0083     0.1102     0.0566     0.2549     3.9870    90.5600     0.1643     0.3239
  285    5.680   2336.40     0.2040     0.0072     0.1183     0.0568     0.2528     3.4785    90.8800     0.1620     0.3676
  286    5.700   2337.40     0.2066     0.0069     0.1205     0.0570     0.2570     3.3644    91.2000     0.1658     0.3801
  287    5.720   2338.36     0.2126     0.0069     0.1273     0.0572     0.2656     3.2622    91.5200     0.1740     0.3957
  288    5.740   2339.32     0.2120     0.0068     0.1290     0.0574     0.2666     3.2215    91.8400     0.1748     0.4158
  289    5.760   2340.29     0.2135     0.0071     0.1276     0.0576     0.2675     3.3336    92.1600     0.1754     0.4053
  290    5.780   2341.24     0.1928     0.0078     0.1205     0.0578     0.2448     3.8295    92.4800     0.1523     0.4337
  291    5.800   2342.21     0.1859     0.0078     0.1127     0.0580     0.2342     3.9553    92.8000     0.1414     0.4027
  292    5.820   2343.20     0.1865     0.0079     0.1062     0.0582     0.2317     4.0812    93.1200     0.1385     0.3554
  293    5.840   2344.15     0.1908     0.0086     0.1082     0.0584     0.2357     4.5122    93.4400     0.1423     0.3412
  294    5.860   2345.11     0.1981     0.0095     0.1154     0.0586     0.2452     4.8943    93.7600     0.1515     0.3540
  295    5.880   2346.08     0.2023     0.0088     0.1245     0.0588     0.2536     4.3834    94.0800     0.1595     0.3979
  296    5.900   2364.46     0.2108     0.0093     0.1228     0.0590     0.2626     4.5717    94.4000     0.1682     0.3855
  297    5.920   2388.89     0.2213     0.0089     0.1211     0.0592     0.2724     4.3876    94.7200     0.1777     0.3545
  298    5.940   2413.32     0.2319     0.0089     0.1228     0.0594     0.2823     3.8910    95.0400     0.1872     0.3235
  299    5.960   2414.95     0.2230     0.0080     0.1265     0.0596     0.2763     3.5744    95.3600     0.1809     0.3723
  300    5.980   2415.59     0.2229     0.0087     0.1259     0.0598     0.2759     3.9076    95.6800     0.1802     0.3680
  301    6.000   2416.26     0.2173     0.0095     0.1248     0.0600     0.2697     4.3861    96.0000     0.1737     0.3722
  302    6.020   2416.89     0.2160     0.0101     0.1227     0.0602     0.2683     4.6567    96.3200     0.1719     0.3731
  303    6.040   2417.54     0.2117     0.0096     0.1192     0.0604     0.2622     4.5286    96.6400     0.1656     0.3611
  304    6.060   2418.57     0.2066     0.0098     0.1244     0.0606     0.2553     6.1231    96.9600     0.1583     0.3498
  305    6.080   2420.84     0.1443     0.0092     0.1200     0.0608     0.1972     6.4098    97.2800     0.0999     0.6632
  306    6.100   2421.48     0.2051     0.0089     0.1101     0.0610     0.2519     5.6454    97.6000     0.1543     0.3262
  307    6.120   2422.13     0.2000     0.0085     0.1143     0.0612     0.2474     4.8810    97.9200     0.1494     0.3453
  308    6.140   2422.76     0.2073     0.0081     0.1140     0.0614     0.2551     4.1165    98.2400     0.1569     0.3346
  309    6.160   2423.42     0.1974     0.0089     0.1097     0.0616     0.2449     4.4449    98.5600     0.1463     0.3522
  310    6.180   2424.06     0.1970     0.0088     0.1019     0.0618     0.2408     4.3886    98.8800     0.1419     0.2990
  311    6.200   2433.79     0.1942     0.0088     0.0959     0.0620     0.2353     4.5446    99.2000     0.1361     0.2623
  312    6.220   2447.84     0.1936     0.0084     0.0898     0.0622     0.2322     4.2959    99.5200     0.1327     0.2213
  313    6.240   2461.89     0.1930     0.0084     0.0838     0.0624     0.2291     4.3168    99.8400     0.1293     0.1803
  314    6.260   2468.77     0.2035     0.0086     0.1067     0.0626     0.2441     4.3353   100.1600     0.1440     0.2371
  315    6.280   2469.77     0.2278     0.0087     0.1243     0.0628     0.2769     3.9101   100.4800     0.1765     0.3077
  316    6.300   2470.77     0.2402     0.0086     0.1293     0.0630     0.2947     3.6025   100.8000     0.1939     0.3436
  317    6.320   2471.75     0.2567     0.0084     0.1346     0.0632     0.3116     3.3363   101.1200     0.2105     0.3213
  318    6.340   2472.72     0.2679     0.0087     0.1438     0.0634     0.3270     3.3072   101.4400     0.2256     0.3436
  319    6.360   2473.71     0.2715     0.0088     0.1484     0.0636     0.3339     3.2762   101.7600     0.2322     0.3660
  320    6.380   2474.64     0.2732     0.0093     0.1538     0.0638     0.3360     3.3657   102.0800     0.2339     0.3667
  321    6.400   2475.61     0.2677     0.0097     0.1684     0.0640     0.3371     3.6326   102.4000     0.2347     0.4315
  322    6.420   2476.58     0.2784     0.0094     0.1703     0.0642     0.3497     3.4711   102.7200     0.2470     0.4278
  323    6.440   2477.57     0.2763     0.0097     0.1695     0.0644     0.3479     3.4840   103.0400     0.2449     0.4338
  324    6.460   2478.53     0.2840     0.0094     0.1454     0.0646     0.3518     3.3804   103.3600     0.2485     0.3902
  325    6.480   2479.53     0.2858     0.0101     0.1149     0.0648     0.3267     3.4312   103.6800     0.2230     0.1465
  326    6.500   2480.52     0.2697     0.0101     0.1428     0.0650     0.3265     3.6746   104.0000     0.2225     0.3160
  327    6.520   2481.46     0.2638     0.0100     0.1528     0.0652     0.3268     3.7854   104.3200     0.2225     0.3810
  328    6.540   2482.43     0.2622     0.0096     0.1617     0.0654     0.3291     3.6312   104.6400     0.2244     0.4185
  329    6.560   2483.40     0.2623     0.0097     0.1707     0.0656     0.3326     3.7201   104.9600     0.2276     0.4470
  330    6.580   2484.40     0.2567     0.0096     0.1731     0.0658     0.3302     3.7430   105.2800     0.2249     0.4852
  331    6.600   2485.36     0.2535     0.0093     0.1758     0.0660     0.3260     3.6489   105.6000     0.2204     0.4839
  332    6.620   2486.32     0.2506     0.0095     0.1776     0.0662     0.3252     3.7680   105.9200     0.2193     0.5087
  333    6.640   2487.29     0.2431     0.0098     0.1717     0.0664     0.3162     4.0400   106.2400     0.2099     0.5120
  334    6.660   2488.25     0.2282     0.0092     0.1677     0.0666     0.2988     4.0148   106.5600     0.1922     0.5273
  335    6.680   2489.25     0.2236     0.0097     0.1686     0.0668     0.2939     4.2970   106.8800     0.1870     0.5381
  336    6.700   2490.24     0.2224     0.0090     0.1756     0.0670     0.2950     4.0295   107.2000     0.1878     0.5641
  337    6.720   2491.20     0.2255     0.0087     0.1823     0.0672     0.3011     3.8802   107.5200     0.1936     0.5831
  338    6.740   2492.20     0.2192     0.0085     0.1867     0.0674     0.2973     3.8768   107.8400     0.1894     0.6255
  339    6.760   2493.17     0.2235     0.0085     0.1888     0.0676     0.3025     3.8033   108.1600     0.1943     0.6195
  340    6.780   2494.14     0.2216     0.0088     0.1904     0.0678     0.3016     3.9172   108.4800     0.1931     0.6355
  341    6.800   2495.13     0.2242     0.0088     0.1853     0.0680     0.3027     3.9407   108.8000     0.1939     0.6131
  342    6.820   2496.08     0.2279     0.0083     0.1854     0.0682     0.3058     3.6831   109.1200     0.1967     0.5964
  343    6.840   2497.04     0.2357     0.0083     0.1769     0.0684     0.3112     3.5582   109.4400     0.2018     0.5525
  344    6.860   2498.05     0.2241     0.0078     0.1802     0.0686     0.2987     3.4078   109.7600     0.1890     0.5767
  345    6.880   2499.02     0.2264     0.0078     0.1877     0.0688     0.3043     3.4534   110.0800     0.1943     0.6006
  346    6.900   2499.96     0.2298     0.0070     0.1874     0.0690     0.3082     3.0559   110.4000     0.1978     0.5955
  347    6.920   2500.92     0.2321     0.0075     0.1890     0.0692     0.3113     3.2781   110.7200     0.2006     0.5956
  348    6.940   2501.88     0.2388     0.0076     0.1737     0.0694     0.3141     3.2075   111.0400     0.2031     0.5416
  349    6.960   2502.88     0.2382     0.0079     0.1703     0.0696     0.3097     3.3068   111.3600     0.1984     0.5076
  350    6.980   2503.79     0.2374     0.0074     0.1727     0.0698     0.3096     3.1117   111.6800     0.1979     0.5161
  351    7.000   2505.58     0.2189     0.0073     0.1737     0.0700     0.2920     3.3068   112.0000     0.1800     0.5865
  352    7.020   2506.66     0.2371     0.0075     0.1656     0.0702     0.3070     3.1951   112.3200     0.1947     0.4950
  353    7.040   2507.63     0.2361     0.0078     0.1694     0.0704     0.3068     3.3033   112.6400     0.1941     0.5043
  354    7.060   2508.63     0.2355     0.0077     0.1716     0.0706     0.3073     3.2628   112.9600     0.1944     0.5167
  355    7.080   2509.62     0.2334     0.0074     0.1709     0.0708     0.3055     3.2271   113.2800     0.1922     0.5255
  356    7.100   2510.59     0.2365     0.0077     0.1641     0.0710     0.3065     3.2778   113.6000     0.1929     0.4961
  357    7.120   2511.58     0.2383     0.0079     0.1697     0.0712     0.3079     3.2771   113.9200     0.1940     0.4874
  358    7.140   2512.56     0.2317     0.0086     0.1758     0.0714     0.3050     3.6895   114.2400     0.1907     0.5403
  359    7.160   2513.52     0.2207     0.0084     0.1734     0.0716     0.2943     3.8117   114.5600     0.1797     0.5763
  360    7.180   2514.49     0.2238     0.0084     0.1724     0.0718     0.2959     3.7522   114.8800     0.1810     0.5511
  361    7.200   2515.49     0.2202     0.0082     0.1748     0.0720     0.2933     3.7216   115.2000     0.1781     0.5730
  362    7.220   2516.45     0.2164     0.0079     0.1810     0.0722     0.2920     3.6236   115.5200     0.1765     0.6114
  363    7.240   2517.42     0.2135     0.0079     0.1877     0.0724     0.2918     3.7159   115.8400     0.1759     0.6477
  364    7.260   2518.38     0.2181     0.0080     0.1914     0.0726     0.2983     3.6686   116.1600     0.1822     0.6504
  365    7.280   2519.35     0.2151     0.0070     0.1913     0.0728     0.2954     3.2728   116.4800     0.1789     0.6617
  366    7.300   2520.36     0.2155     0.0065     0.1926     0.0730     0.2962     3.0533   116.8000     0.1794     0.6642
  367    7.320   2521.30     0.2192     0.0060     0.1894     0.0732     0.2996     2.7683   117.1200     0.1825     0.6482
  368    7.340   2522.26     0.2171     0.0056     0.1877     0.0734     0.2962     2.5671   117.4400     0.1787     0.6427
  369    7.360   2523.22     0.2145     0.0062     0.1870     0.0736     0.2938     2.8786   117.7600     0.1761     0.6544
  370    7.380   2524.22     0.2116     0.0068     0.1774     0.0738     0.2876     3.1901   118.0800     0.1696     0.6323
  371    7.400   2525.18     0.2059     0.0072     0.1637     0.0740     0.2757     3.4366   118.4000     0.1573     0.5866
  372    7.420   2526.13     0.2036     0.0058     0.1622     0.0742     0.2720     2.8129   118.7200     0.1533     0.5794
  373    7.440   2527.13     0.2071     0.0067     0.1541     0.0744     0.2726     3.3599   119.0400     0.1535     0.5324
  374    7.460   2542.22     0.2073     0.0064     0.1588     0.0746     0.2733     3.0185   119.3600     0.1539     0.5379
  375    7.480   2560.67     0.2024     0.0068     0.1635     0.0748     0.2704     3.2179   119.6800     0.1507     0.5792
  376    7.500   2576.94     0.1971     0.0072     0.1628     0.0750     0.2665     3.5812   120.0000     0.1465     0.6154
  377    7.520   2577.94     0.2079     0.0073     0.1561     0.0752     0.2742     3.5598   120.3200     0.1539     0.5375
  378    7.540   2578.91     0.2216     0.0077     0.1497     0.0754     0.2847     3.4980   120.6400     0.1640     0.4563
  379    7.560   2579.90     0.2252     0.0075     0.1636     0.0756     0.2915     3.3297   120.9600     0.1706     0.4820
  380    7.580   2580.86     0.2325     0.0076     0.1594     0.0758     0.3009     3.2805   121.2800     0.1796     0.4851
  381    7.600   2581.84     0.2347     0.0075     0.1624     0.0760     0.3017     3.2254   121.6000     0.1801     0.4635
  382    7.620   2582.86     0.2319     0.0080     0.1612     0.0762     0.3013     3.4241   121.9200     0.1793     0.4958
  383    7.640   2583.85     0.2359     0.0079     0.1696     0.0764     0.3058     3.3204   122.2400     0.1835     0.4901
  384    7.660   2584.87     0.2399     0.0077     0.1776     0.0766     0.3130     3.2527   122.5600     0.1905     0.5127
  385    7.680   2585.83     0.2380     0.0081     0.1814     0.0768     0.3132     3.3751   122.8800     0.1904     0.5378
  386    7.700   2586.80     0.2411     0.0078     0.1860     0.0770     0.3186     3.2594   123.2000     0.1954     0.5497
  387    7.720   2587.76     0.2428     0.0080     0.1871     0.0772     0.3211     3.2621   123.5200     0.1976     0.5529
  388    7.740   2588.72     0.2488     0.0084     0.1899     0.0774     0.3282     3.3841   123.8400     0.2044     0.5468
  389    7.760   2589.68     0.2472     0.0087     0.1925     0.0776     0.3278     3.5074   124.1600     0.2037     0.5610
  390    7.780   2590.65     0.2518     0.0083     0.1946     0.0778     0.3333     3.2609   124.4800     0.2089     0.5567
  391    7.800   2591.64     0.2478     0.0085     0.1966     0.0780     0.3300     3.4103   124.8000     0.2052     0.5736
  392    7.820   2592.60     0.2519     0.0087     0.1987     0.0782     0.3350     3.4548   125.1200     0.2099     0.5701
  393    7.840   2593.57     0.2486     0.0082     0.2044     0.0784     0.3334     3.2621   125.4400     0.2080     0.5942
  394    7.860   2594.55     0.2432     0.0079     0.2066     0.0786     0.3300     3.2346   125.7600     0.2042     0.6271
  395    7.880   2595.50     0.2416     0.0082     0.2105     0.0788     0.3296     3.4246   126.0800     0.2035     0.6415
  396    7.900   2596.46     0.2451     0.0083     0.2081     0.0790     0.3327     3.3764   126.4000     0.2063     0.6284
  397    7.920   2597.44     0.2479     0.0080     0.2074     0.0792     0.3352     3.2236   126.7200     0.2085     0.6172
  398    7.940   2598.40     0.2528     0.0082     0.2076     0.0794     0.3395     3.2558   127.0400     0.2125     0.5982
  399    7.960   2599.40     0.2579     0.0084     0.2074     0.0796     0.3447     3.2758   127.3600     0.2174     0.5853
  400    7.980   2600.36     0.2581     0.0084     0.2069     0.0798     0.3449     3.2403   127.6800     0.2172     0.5836
  401    8.000   2601.33     0.2600     0.0084     0.2079     0.0800     0.3471     3.2191   128.0000     0.2191     0.5816
  402    8.020   2602.32     0.2587     0.0087     0.2116     0.0802     0.3472     3.3488   128.3200     0.2188     0.5963
  403    8.040   2603.28     0.2586     0.0085     0.2103     0.0804     0.3473     3.2550   128.6400     0.2187     0.5986
  404    8.060   2604.29     0.2636     0.0085     0.2130     0.0806     0.3524     3.2307   128.9600     0.2234     0.5857
  405    8.080   2605.25     0.2607     0.0084     0.2139     0.0808     0.3509     3.2117   129.2800     0.2216     0.6036
  406    8.100   2606.25     0.2641     0.0083     0.2153     0.0810     0.3541     3.1673   129.6000     0.2245     0.5933
  407    8.120   2607.21     0.2586     0.0083     0.2178     0.0812     0.3492     3.1806   129.9200     0.2193     0.6137
  408    8.140   2608.21     0.2569     0.0085     0.2237     0.0814     0.3508     3.3329   130.2400     0.2206     0.6442
  409    8.160   2609.19     0.2602     0.0085     0.2223     0.0816     0.3536     3.2528   130.5600     0.2230     0.6308
  410    8.180   2610.14     0.2620     0.0081     0.2216     0.0818     0.3555     3.1048   130.8800     0.2246     0.6268
  411    8.200   2611.10     0.2606     0.0086     0.2224     0.0820     0.3533     3.2413   131.2000     0.2221     0.6246
  412    8.220   2612.08     0.2667     0.0085     0.2236     0.0822     0.3612     3.1656   131.5200     0.2297     0.6216
  413    8.240   2613.03     0.2676     0.0083     0.2239     0.0824     0.3609     3.1028   131.8400     0.2291     0.6103
  414    8.260   2613.99     0.2653     0.0088     0.2292     0.0826     0.3610     3.3214   132.1600     0.2288     0.6348
  415    8.280   2614.99     0.2703     0.0079     0.2305     0.0828     0.3673     2.9393   132.4800     0.2348     0.6310
  416    8.300   2615.96     0.2769     0.0079     0.2321     0.0830     0.3741     2.8502   132.8000     0.2413     0.6149
  417    8.320   2616.95     0.2850     0.0086     0.2359     0.0832     0.3832     3.0629   133.1200     0.2501     0.6027
  418    8.340   2617.91     0.3018     0.0085     0.2306     0.0834     0.3986     2.8697   133.4400     0.2652     0.5549
  419    8.360   2618.92     0.3010     0.0088     0.2307     0.0836     0.3983     2.8936   133.7600     0.2646     0.5602
  420    8.380   2619.87     0.3032     0.0081     0.2382     0.0838     0.4029     2.7093   134.0800     0.2688     0.5712
  421    8.400   2620.83     0.3096     0.0081     0.2386     0.0840     0.4088     2.6369   134.4000     0.2744     0.5548
  422    8.420   2621.79     0.3099     0.0080     0.2338     0.0842     0.4083     2.5776   134.7200     0.2736     0.5483
  423    8.440   2622.80     0.3091     0.0081     0.2255     0.0844     0.4044     2.6132   135.0400     0.2694     0.5293
  424    8.460   2623.76     0.3054     0.0080     0.2251     0.0846     0.4001     2.6015   135.3600     0.2648     0.5326
  425    8.480   2624.72     0.3053     0.0078     0.2241     0.0848     0.3988     2.5474   135.6800     0.2631     0.5240
  426    8.500   2625.71     0.2981     0.0072     0.2262     0.0850     0.3938     2.3897   136.0000     0.2578     0.5538
  427    8.520   2626.67     0.3053     0.0070     0.2262     0.0852     0.3997     2.2997   136.3200     0.2633     0.5299
  428    8.540   2627.64     0.3184     0.0065     0.2285     0.0854     0.4142     2.0593   136.6400     0.2776     0.5139
  429    8.560   2628.60     0.3181     0.0058     0.2321     0.0856     0.4150     1.7767   136.9600     0.2781     0.5223
  430    8.580   2629.58     0.3227     0.0053     0.2268     0.0858     0.4191     1.6282   137.2800     0.2818     0.5100
  431    8.600   2630.56     0.3361     0.0045     0.2141     0.0860     0.4278     1.3883   137.6000     0.2902     0.4568
  432    8.620   2631.54     0.3601     0.0026     0.2087     0.0862     0.4487     0.7502   137.9200     0.3108     0.4021
  433    8.640   2632.47     0.3636     0.0010     0.2011     0.0864     0.4491     0.2715   138.2400     0.3109     0.3773
  434    8.660   2633.48     0.3917     0.0020     0.1940     0.0866     0.4754     0.4986   138.5600     0.3368     0.3347
  435    8.680   2634.46     0.4115     0.0032     0.1574     0.0868     0.4779     0.7658   138.8800     0.3390     0.2105
  436    8.700   2635.45     0.4754     0.0061     0.1907     0.0870     0.5521     1.4006   139.2000     0.4129     0.2315
  437    8.720   2636.40     0.5753     0.0096     0.1513     0.0872     0.6469     1.8031   139.5200     0.5074     0.1650
  438    8.740   2637.36     0.6817     0.0153     0.1176     0.0874     0.7333     2.3553   139.8400     0.5935     0.0600
  439    8.760   2640.23     0.7914     0.0195     0.1144     0.0876     0.8397     2.6558   140.1600     0.6996     0.0402
  440    8.780   2644.72     0.8992     0.0234     0.1127     0.0878     0.9468     3.1926   140.4800     0.8063     0.0328
  441    8.800   2648.55     0.8789     0.0246     0.1416     0.0880     0.9336     2.6603   140.8000     0.7928     0.0570
  442    8.820   2649.60     0.9813     0.0259     0.1514     0.0882     1.0401     2.6715   141.1200     0.8990     0.0574
  443    8.840   2650.58     0.9929     0.0276     0.1706     0.0884     1.0624     2.7910   141.4400     0.9209     0.0835
  444    8.860   2651.56     0.9710     0.0280     0.1924     0.0886     1.0456     2.8732   141.7600     0.9039     0.0986
  445    8.880   2652.55     0.9188     0.0273     0.2035     0.0888     1.0049     2.9357   142.0800     0.8628     0.1347
  446    8.900   2653.53     0.8932     0.0262     0.1888     0.0890     0.9729     2.9014   142.4000     0.8305     0.1215
  447    8.920   2654.50     0.8520     0.0257     0.1930     0.0892     0.9293     2.9771   142.7200     0.7866     0.1208
  448    8.940   2655.46     0.8107     0.0254     0.2292     0.0894     0.9020     3.1123   143.0400     0.7590     0.1688
  449    8.960   2656.46     0.7956     0.0256     0.2537     0.0896     0.9006     3.2135   143.3600     0.7572     0.2117
  450    8.980   2657.42     0.8191     0.0241     0.2755     0.0898     0.9317     2.9600   143.6800     0.7880     0.2263
  451    9.000   2658.38     0.8316     0.0235     0.2695     0.0900     0.9453     2.8349   144.0000     0.8013     0.2256
  452    9.020   2659.34     0.8361     0.0229     0.2857     0.0902     0.9513     2.7356   144.3200     0.8070     0.2282
  453    9.040   2660.30     0.8494     0.0236     0.2755     0.0904     0.9752     2.7909   144.6400     0.8306     0.2519
  454    9.060   2661.30     0.8856     0.0252     0.2784     0.0906     1.0029     2.8642   144.9600     0.8580     0.2199
  455    9.080   2662.31     0.9248     0.0275     0.2609     0.0908     1.0398     3.0150   145.2800     0.8946     0.2046
  456    9.100   2663.27     0.9636     0.0311     0.2236     0.0910     1.0616     3.2432   145.6000     0.9160     0.1552
  457    9.120   2664.23     1.0042     0.0357     0.1731     0.0912     1.0817     3.6265   145.9200     0.9357     0.0998
  458    9.140   2665.19     1.0354     0.0401     0.1491     0.0914     1.0997     3.8982   146.2400     0.9535     0.0649
  459    9.160   2666.19     1.0666     0.0442     0.1390     0.0916     1.1287     4.1621   146.5600     0.9821     0.0574
  460    9.180   2667.15     1.0688     0.0457     0.1334     0.0918     1.1226     4.2637   146.8800     0.9758     0.0374
  461    9.200   2668.13     1.0431     0.0457     0.1471     0.0920     1.1036     4.3648   147.2000     0.9564     0.0546
  462    9.220   2669.10     1.0322     0.0437     0.1696     0.0922     1.0988     4.2469   147.5200     0.9513     0.0699
  463    9.240   2670.09     1.0237     0.0399     0.2117     0.0924     1.1082     3.8815   147.8400     0.9604     0.1133
  464    9.260   2671.03     1.0135     0.0398     0.2283     0.0926     1.1077     3.9102   148.1600     0.9595     0.1372
  465    9.280   2672.05     0.9946     0.0401     0.2310     0.0928     1.0899     4.0126   148.4800     0.9415     0.1426
  466    9.300   2673.02     0.9697     0.0395     0.2306     0.0930     1.0684     4.0636   148.8000     0.9196     0.1543
  467    9.320   2673.99     0.9600     0.0390     0.2212     0.0932     1.0555     4.0574   149.1200     0.9063     0.1479
  468    9.340   2674.97     0.9659     0.0407     0.1960     0.0934     1.0500     4.2102   149.4400     0.9005     0.1186
  469    9.360   2675.95     0.9480     0.0414     0.1914     0.0936     1.0280     4.3330   149.7600     0.8783     0.1103
  470    9.380   2676.91     0.9090     0.0411     0.2045     0.0938     0.9924     4.4821   150.0800     0.8423     0.1245
  471    9.400   2677.92     0.8760     0.0391     0.2171     0.0940     0.9667     4.4316   150.4000     0.8163     0.1494
  472    9.420   2678.88     0.8638     0.0383     0.2122     0.0942     0.9532     4.4113   150.7200     0.8025     0.1480
  473    9.440   2679.88     0.8724     0.0383     0.2256     0.0944     0.9628     4.4349   151.0400     0.8117     0.1487
  474    9.460   2680.84     0.8508     0.0382     0.2537     0.0946     0.9530     4.4643   151.3600     0.8016     0.1854
  475    9.480   2681.80     0.8533     0.0371     0.2656     0.0948     0.9641     4.3703   151.6800     0.8125     0.2081
  476    9.500   2682.72     0.8779     0.0344     0.2753     0.0950     0.9909     3.9692   152.0000     0.8389     0.2075
  477    9.520   2683.67     0.8912     0.0325     0.2765     0.0952     1.0084     3.6838   152.3200     0.8561     0.2150
  478    9.540   2695.55     0.9297     0.0345     0.2670     0.0954     1.0432     3.8598   152.6400     0.8906     0.1972
  479    9.560   2709.36     0.9707     0.0359     0.2591     0.0956     1.0802     4.0085   152.9600     0.9273     0.1785
  480    9.580   2713.99     0.9826     0.0379     0.2711     0.0958     1.0956     3.8620   153.2800     0.9423     0.1836
  481    9.600   2714.98     0.9811     0.0365     0.2623     0.0960     1.0951     3.7347   153.6000     0.9415     0.1864
  482    9.620   2715.96     0.9905     0.0360     0.2404     0.0962     1.0933     3.6319   153.9200     0.9394     0.1583
  483    9.640   2716.98     0.9778     0.0369     0.2512     0.0964     1.0828     3.7526   154.2400     0.9285     0.1653
  484    9.660   2717.94     0.9550     0.0382     0.2620     0.0966     1.0638     3.9852   154.5600     0.9092     0.1787
  485    9.680   2718.89     0.9457     0.0383     0.2813     0.0968     1.0578     4.0329   154.8800     0.9029     0.1883
  486    9.700   2719.89     0.9412     0.0383     0.2733     0.0970     1.0562     4.0719   155.2000     0.9010     0.1962
  487    9.720   2720.85     0.9555     0.0386     0.2525     0.0972     1.0635     4.0645   155.5200     0.9080     0.1762
  488    9.740   2721.86     0.9721     0.0395     0.2328     0.0974     1.0714     4.0783   155.8400     0.9156     0.1519
  489    9.760   2722.82     0.9753     0.0406     0.2234     0.0976     1.0682     4.1519   156.1600     0.9121     0.1355
  490    9.780   2723.79     0.9562     0.0399     0.2247     0.0978     1.0516     4.1549   156.4800     0.8951     0.1444
  491    9.800   2724.78     0.9400     0.0377     0.2222     0.0980     1.0324     3.9980   156.8000     0.8756     0.1394
  492    9.820   2725.74     0.9040     0.0376     0.2211     0.0982     0.9992     4.1404   157.1200     0.8421     0.1525
  493    9.840   2726.74     0.8795     0.0406     0.2195     0.0984     0.9708     4.5900   157.4400     0.8133     0.1461
  494    9.860   2727.71     0.8406     0.0421     0.2332     0.0986     0.9363     4.9544   157.7600     0.7785     0.1660
  495    9.880   2728.71     0.8097     0.0410     0.2354     0.0988     0.9106     5.0363   158.0800     0.7525     0.1880
  496    9.900   2729.67     0.8119     0.0391     0.2260     0.0990     0.9052     4.8555   158.4000     0.7468     0.1649
  497    9.920   2730.63     0.7963     0.0358     0.2450     0.0992     0.8974     4.4698   158.7200     0.7387     0.1915
  498    9.940   2731.64     0.7776     0.0333     0.2708     0.0994     0.8866     4.2579   159.0400     0.7275     0.2199
  499    9.960   2732.62     0.7679     0.0320     0.3007     0.0996     0.8904     4.1524   159.3600     0.7310     0.2625
  500    9.980   2733.62     0.7716     0.0303     0.3160     0.0998     0.9024     3.9387   159.6800     0.7428     0.2850
  501   10.000   2734.62     0.7789     0.0296     0.3198     0.1000     0.9131     3.7995   160.0000     0.7531     0.2914
  502   10.020   2735.57     0.7870     0.0296     0.3294     0.1002     0.9250     3.7640   160.3200     0.7647     0.2986
  503   10.040   2736.53     0.8021     0.0284     0.3231     0.1004     0.9383     3.5528   160.6400     0.7777     0.2880
  504   10.060   2737.51     0.8035     0.0288     0.3222     0.1006     0.9372     3.5847   160.9600     0.7762     0.2805
  505   10.080   2738.50     0.8164     0.0293     0.3384     0.1008     0.9549     3.6048   161.2800     0.7936     0.2887
  506   10.100   2739.51     0.8332     0.0288     0.3256     0.1010     0.9750     3.4925   161.6000     0.8134     0.2908
  507   10.120   2740.47     0.8587     0.0306     0.3183     0.1012     0.9934     3.5708   161.9200     0.8315     0.2643
  508   10.140   2741.43     0.8748     0.0309     0.2938     0.1014     0.9997     3.5514   162.2400     0.8375     0.2342
  509   10.160   2742.40     0.8825     0.0314     0.2977     0.1016     1.0073     3.5663   162.5600     0.8448     0.2314
  510   10.180   2743.39     0.8725     0.0322     0.2867     0.1018     0.9976     3.6796   162.8800     0.8347     0.2347
  511   10.200   2744.36     0.8798     0.0319     0.2731     0.1020     0.9969     3.6361   163.2000     0.8337     0.2121
  512   10.220   2745.31     0.8651     0.0316     0.2776     0.1022     0.9790     3.6412   163.5200     0.8155     0.2073
  513   10.240   2746.32     0.8407     0.0315     0.2802     0.1024     0.9604     3.7393   163.8400     0.7966     0.2293
  514   10.260   2747.28     0.8396     0.0307     0.2738     0.1026     0.9538     3.6490   164.1600     0.7897     0.2146
  515   10.280   2748.32     0.8245     0.0302     0.2822     0.1028     0.9432     3.6399   164.4800     0.7788     0.2309
  516   10.300   2749.26     0.8233     0.0309     0.2757     0.1030     0.9403     3.7637   164.8000     0.7755     0.2264
  517   10.320   2750.27     0.8051     0.0305     0.2891     0.1032     0.9233     3.7604   165.1200     0.7582     0.2351
  518   10.340   2751.23     0.7752     0.0295     0.2924     0.1034     0.8996     3.7803   165.4400     0.7342     0.2627
  519   10.360   2752.25     0.7598     0.0284     0.2941     0.1036     0.8829     3.7133   165.7600     0.7172     0.2644
  520   10.380   2753.20     0.7597     0.0284     0.3003     0.1038     0.8837     3.7328   166.0800     0.7176     0.2669
  521   10.400   2754.20     0.7526     0.0280     0.3237     0.1040     0.8855     3.7108   166.4000     0.7191     0.2954
  522   10.420   2755.17     0.7582     0.0286     0.3261     0.1042     0.8960     3.7799   166.7200     0.7293     0.3070
  523   10.440   2756.16     0.7668     0.0281     0.3298     0.1044     0.9037     3.6558   167.0400     0.7366     0.3008
  524   10.460   2757.13     0.7697     0.0285     0.3412     0.1046     0.9114     3.7082   167.3600     0.7440     0.3130
  525   10.480   2758.09     0.7680     0.0276     0.3368     0.1048     0.9110     3.5992   167.6800     0.7434     0.3171
  526   10.500   2759.08     0.7712     0.0254     0.3273     0.1050     0.9098     3.2941   168.0000     0.7418     0.3031
  527   10.520   2760.07     0.7536     0.0267     0.3487     0.1052     0.8970     3.5266   168.3200     0.7286     0.3242
  528   10.540   2761.02     0.7616     0.0269     0.3544     0.1054     0.9108     3.5560   168.6400     0.7422     0.3367
  529   10.560   2762.03     0.7733     0.0264     0.3730     0.1056     0.9261     3.4274   168.9600     0.7572     0.3412
  530   10.580   2762.99     0.8031     0.0264     0.3822     0.1058     0.9621     3.3296   169.2800     0.7929     0.3441
  531   10.600   2763.95     0.8377     0.0253     0.3612     0.1060     0.9936     3.0600   169.6000     0.8240     0.3220
  532   10.620   2764.93     0.8693     0.0244     0.3659     0.1062     1.0229     2.8234   169.9200     0.8529     0.3040
  533   10.640   2765.88     0.8923     0.0251     0.3469     0.1064     1.0396     2.8312   170.2400     0.8694     0.2812
  534   10.660   2766.89     0.9051     0.0278     0.3436     0.1066     1.0506     3.0748   170.5600     0.8800     0.2726
  535   10.680   2767.88     0.9047     0.0295     0.3653     0.1068     1.0535     3.2533   170.8800     0.8826     0.2804
  536   10.700   2768.88     0.9134     0.0311     0.3960     0.1070     1.0777     3.4274   171.2000     0.9065     0.3136
  537   10.720   2769.76     0.9303     0.0321     0.3859     0.1072     1.0958     3.4602   171.5200     0.9243     0.3105
  538   10.740   2770.80     0.9208     0.0333     0.3427     0.1074     1.0709     3.5924   171.8400     0.8990     0.2780
  539   10.760   2771.86     0.9080     0.0321     0.3560     0.1076     1.0501     3.5107   172.1600     0.8780     0.2628
  540   10.780   2772.77     0.8891     0.0316     0.3726     0.1078     1.0441     3.5530   172.4800     0.8717     0.2998
  541   10.800   2773.78     0.8894     0.0311     0.3863     0.1080     1.0519     3.4979   172.8000     0.8791     0.3173
  542   10.820   2774.77     0.8998     0.0300     0.3972     0.1082     1.0636     3.3443   173.1200     0.8904     0.3164
  543   10.840   2775.69     0.9015     0.0278     0.4231     0.1084     1.0754     3.0843   173.4400     0.9020     0.3390
  544   10.860   2776.65     0.9090     0.0257     0.4389     0.1086     1.0915     2.8419   173.7600     0.9178     0.3553
  545   10.880   2777.65     0.9206     0.0240     0.4416     0.1088     1.1064     2.6070   174.0800     0.9324     0.3580
  546   10.900   2778.67     0.9291     0.0214     0.4514     0.1090     1.1161     2.3054   174.4000     0.9417     0.3570
  547   10.920   2779.68     0.9320     0.0208     0.4587     0.1092     1.1258     2.2432   174.7200     0.9510     0.3702
  548   10.940   2780.68     0.9574     0.0221     0.4343     0.1094     1.1418     2.3064   175.0400     0.9668     0.3411
  549   10.960   2781.63     0.9494     0.0231     0.4063     0.1096     1.1232     2.4298   175.3600     0.9479     0.3210
  550   10.980   2782.61     0.9240     0.0236     0.4279     0.1098     1.1029     2.5468   175.6800     0.9272     0.3410
  551   11.000   2783.60     0.9297     0.0237     0.3941     0.1100     1.0993     2.5441   176.0000     0.9233     0.3181
  552   11.020   2784.62     0.8981     0.0240     0.3957     0.1102     1.0640     2.6580   176.3200     0.8877     0.3207
  553   11.040   2785.61     0.8645     0.0234     0.3969     0.1104     1.0315     2.6941   176.6400     0.8549     0.3360
  554   11.060   2786.62     0.8714     0.0251     0.3571     0.1106     1.0274     2.8931   176.9600     0.8504     0.3067
  555   11.080   2787.57     0.8808     0.0261     0.3406     0.1108     1.0263     2.9709   177.2800     0.8491     0.2775
  556   11.100   2788.57     0.8708     0.0246     0.3496     0.1110     1.0131     2.8036   177.6000     0.8355     0.2727
  557   11.120   2789.56     0.8667     0.0261     0.3835     0.1112     1.0242     3.0202   177.9200     0.8463     0.3117
  558   11.140   2790.55     0.8905     0.0269     0.3680     0.1114     1.0497     3.0446   178.2400     0.8715     0.3072
  559   11.160   2791.58     0.9290     0.0261     0.3846     0.1116     1.0868     2.8348   178.5600     0.9082     0.2906
  560   11.180   2792.54     0.9508     0.0263     0.3751     0.1118     1.1115     2.7908   178.8800     0.9326     0.2905
  561   11.200   2793.45     0.9941     0.0254     0.3247     0.1120     1.1368     2.5740   179.2000     0.9576     0.2380
  562   11.220   2794.47     0.9746     0.0253     0.3428     0.1122     1.1184     2.5434   179.5200     0.9389     0.2453
  563   11.240   2795.48     0.9313     0.0249     0.3287     0.1124     1.0559     2.6658   179.8400     0.8761     0.2108
  564   11.260   2796.44     0.8720     0.0245     0.3620     0.1126     1.0226     2.7882   180.1600     0.8424     0.2918
  565   11.280   2797.41     0.8663     0.0231     0.3833     0.1128     1.0226     2.6623   180.4800     0.8421     0.3082
  566   11.300   2798.44     0.8509     0.0227     0.3784     0.1130     1.0143     2.6792   180.8000     0.8335     0.3314
  567   11.320   2799.56     0.8677     0.0226     0.3902     0.1132     1.0318     2.6124   181.1200     0.8507     0.3263
  568   11.340   2814.18     0.8692     0.0224     0.3855     0.1134     1.0318     2.5775   181.4400     0.8504     0.3219
  569   11.360   2830.90     0.8700     0.0223     0.3807     0.1136     1.0306     2.5624   181.7600     0.8488     0.3166
  570   11.380   2839.31     0.8588     0.0228     0.3928     0.1138     1.0211     2.6444   182.0800     0.8390     0.3248
  571   11.400   2840.32     0.8633     0.0251     0.4039     0.1140     1.0349     2.9029   182.4000     0.8525     0.3454
  572   11.420   2841.31     0.8769     0.0262     0.4192     0.1142     1.0457     2.9863   182.7200     0.8630     0.3334
  573   11.440   2842.27     0.8967     0.0302     0.4584     0.1144     1.0856     3.3929   183.0400     0.9025     0.3714
  574   11.460   2843.23     0.9522     0.0367     0.4803     0.1146     1.1513     3.9027   183.3600     0.9680     0.3713
  575   11.480   2844.21     1.1143     0.0404     0.5162     0.1148     1.3251     3.7332   183.6800     1.1414     0.3392
  576   11.500   2845.20     1.4324     0.0424     0.5478     0.1150     1.6646     3.1290   184.0000     1.4806     0.2962
  577   11.520   2846.20     1.6566     0.0470     0.6292     0.1152     1.8986     2.8475   184.3200     1.7143     0.2688
  578   11.540   2847.16     1.8341     0.0510     0.6741     0.1154     2.1246     2.8303   184.6400     1.9399     0.2972
  579   11.560   2848.17     2.0714     0.0617     0.7176     0.1156     2.3590     3.0023   184.9600     2.1741     0.2617
  580   11.580   2849.18     2.2515     0.0677     0.7728     0.1158     2.5722     3.0251   185.2800     2.3870     0.2714
  581   11.600   2850.18     2.3459     0.0626     0.7501     0.1160     2.6658     2.6796   185.6000     2.4802     0.2604
  582   11.620   2851.14     2.3765     0.0609     0.7556     0.1162     2.6935     2.5540   185.9200     2.5076     0.2547
  583   11.640   2852.15     2.3478     0.0622     0.7337     0.1164     2.6568     2.6428   186.2400     2.4706     0.2507
  584   11.660   2853.16     2.2789     0.0571     0.7716     0.1166     2.5956     2.4590   186.5600     2.4090     0.2647
  585   11.680   2854.16     2.0788     0.0502     0.8072     0.1168     2.4157     2.3684   186.8800     2.2288     0.3077
  586   11.700   2855.15     1.9855     0.0464     0.7701     0.1170     2.3156     2.3286   187.2000     2.1284     0.3142
  587   11.720   2856.16     2.0006     0.0453     0.7555     0.1172     2.3192     2.2738   187.5200     2.1317     0.3009
  588   11.740   2857.15     1.9901     0.0481     0.7565     0.1174     2.3067     2.4071   187.8400     2.1189     0.3004
  589   11.760   2858.05     1.9327     0.0552     0.7081     0.1176     2.2409     2.8474   188.1600     2.0527     0.3002
  590   11.780   2859.05     1.9267     0.0548     0.6605     0.1178     2.2049     2.8349   188.4800     2.0164     0.2700
  591   11.800   2860.05     1.8881     0.0537     0.6137     0.1180     2.1549     2.8477   188.8000     1.9661     0.2630
  592   11.820   2861.07     1.8010     0.0526     0.5901     0.1182     2.0557     2.8844   189.1200     1.8665     0.2615
  593   11.840   2862.03     1.7279     0.0491     0.5929     0.1184     1.9682     2.8061   189.4400     1.7788     0.2553
  594   11.860   2863.03     1.6678     0.0487     0.6584     0.1186     1.9275     2.8859   189.7600     1.7378     0.2877
  595   11.880   2864.02     1.6380     0.0466     0.6976     0.1188     1.9289     2.8550   190.0800     1.7388     0.3299
  596   11.900   2865.01     1.6895     0.0462     0.6926     0.1190     1.9777     2.7413   190.4000     1.7873     0.3174
  597   11.920   2866.00     1.6915     0.0414     0.6336     0.1192     1.9742     2.4523   190.7200     1.7835     0.3105
  598   11.940   2866.98     1.7001     0.0335     0.5857     0.1194     1.9510     1.9676   191.0400     1.7600     0.2716
  599   11.960   2867.97     1.6683     0.0496     0.5893     0.1196     1.9147     2.9637   191.3600     1.7233     0.2710
  600   11.980   2868.95     1.6659     0.0501     0.6143     0.1198     1.9213     3.0103   191.6800     1.7296     0.2823
  601   12.000   2869.95     1.7178     0.0498     0.6409     0.1200     1.9844     2.9099   192.0000     1.7924     0.2872
  602   12.020   2870.96     1.8990     0.0504     0.6049     0.1202     2.1661     2.8469   192.3200     1.9738     0.2652
  603   12.040   2871.96     2.5211     0.0566     0.2487     0.1204     2.6843     2.2377   192.6400     2.4916     0.1068
  604   12.060   2872.99     1.9487     0.0576     0.4302     0.1206     2.1428     2.9214   192.9600     1.9499     0.1751
  605   12.080   2873.99     1.8653     0.0559     0.4572     0.1208     2.0573     2.9795   193.2800     1.8641     0.1805
  606   12.100   2874.99     1.8183     0.0512     0.4500     0.1210     2.0039     2.8056   193.6000     1.8103     0.1773
  607   12.120   2875.85     1.7940     0.0497     0.4427     0.1212     1.9836     2.7709   193.9200     1.7897     0.1846
  608   12.140   2876.90     1.7279     0.0491     0.5332     0.1214     1.9404     2.8235   194.2400     1.7462     0.2203
  609   12.160   2877.92     1.7034     0.0457     0.5967     0.1216     1.9448     2.6809   194.5600     1.7502     0.2589
  610   12.180   2878.92     1.7182     0.0439     0.5769     0.1218     1.9690     2.5697   194.8800     1.7742     0.2681
  611   12.200   2879.90     1.7633     0.0439     0.5377     0.1220     1.9939     2.4898   195.2000     1.7987     0.2374
  612   12.220   2880.91     1.7481     0.0457     0.5495     0.1222     1.9731     2.6089   195.5200     1.7776     0.2326
  613   12.240   2881.90     1.7134     0.0458     0.5494     0.1224     1.9462     2.6682   195.8400     1.7503     0.2467
  614   12.260   2882.78     1.7007     0.0483     0.5301     0.1226     1.9248     2.8398   196.1600     1.7286     0.2377
  615   12.280   2883.83     1.6778     0.0472     0.5446     0.1228     1.9053     2.8115   196.4800     1.7088     0.2451
  616   12.300   2884.84     1.6794     0.0445     0.5587     0.1230     1.9120     2.6526   196.8000     1.7152     0.2511
  617   12.320   2885.84     1.6738     0.0424     0.5688     0.1232     1.9083     2.5297   197.1200     1.7112     0.2542
  618   12.340   2886.83     1.7003     0.0432     0.5778     0.1234     1.9403     2.5578   197.4400     1.7428     0.2570
  619   12.360   2887.84     1.7094     0.0424     0.6404     0.1236     1.9705     2.4730   197.7600     1.7727     0.2809
  620   12.380   2888.85     1.7122     0.0444     0.6320     0.1238     1.9888     2.5876   198.0800     1.7907     0.2985
  621   12.400   2889.81     1.7606     0.0461     0.5966     0.1240     2.0186     2.6243   198.4000     1.8202     0.2693
  622   12.420   2890.80     1.7378     0.0454     0.5223     0.1242     1.9711     2.6001   198.7200     1.7724     0.2434
  623   12.440   2891.79     1.7143     0.0474     0.5226     0.1244     1.9306     2.7443   199.0400     1.7315     0.2256
  624   12.460   2892.75     1.6552     0.0482     0.5374     0.1246     1.8803     2.8977   199.3600     1.6809     0.2447
  625   12.480   2893.75     1.6506     0.0475     0.5677     0.1248     1.8798     2.8787   199.6800     1.6801     0.2504
  626   12.500   2894.74     1.6400     0.0472     0.6043     0.1250     1.8908     2.8771   200.0000     1.6908     0.2792
  627   12.520   2895.75     1.6449     0.0461     0.5929     0.1252     1.8981     2.8067   200.3200     1.6978     0.2814
  628   12.540   2896.75     1.6782     0.0462     0.6044     0.1254     1.9297     2.7564   200.6400     1.7290     0.2737
  629   12.560   2897.72     1.6634     0.0448     0.6192     0.1256     1.9186     2.6914   200.9600     1.7177     0.2807
  630   12.580   2898.72     1.6489     0.0464     0.6187     0.1258     1.9114     2.8211   201.2800     1.7101     0.2919
  631   12.600   2899.75     1.7082     0.0499     0.6349     0.1260     1.9675     2.9326   201.6000     1.7659     0.2783
  632   12.620   2900.76     1.7222     0.0491     0.6570     0.1262     1.9956     2.8614   201.9200     1.7937     0.2926
  633   12.640   2901.76     1.7692     0.0487     0.6423     0.1264     2.0463     2.7587   202.2400     1.8441     0.2892
  634   12.660   2902.73     1.8132     0.0488     0.5693     0.1266     2.0598     2.7014   202.5600     1.8572     0.2479
  635   12.680   2903.73     1.8125     0.0517     0.5444     0.1268     2.0409     2.8569   202.8800     1.8381     0.2269
  636   12.700   2904.72     1.7714     0.0553     0.5611     0.1270     2.0053     3.1001   203.2000     1.8021     0.2386
  637   12.720   2905.68     1.7397     0.0594     0.5571     0.1272     1.9759     3.4068   203.5200     1.7724     0.2455
  638   12.740   2906.73     1.7093     0.0605     0.5755     0.1274     1.9483     3.5199   203.8400     1.7445     0.2533
  639   12.760   2907.70     1.6879     0.0598     0.5538     0.1276     1.9227     3.5382   204.1600     1.7185     0.2510
  640   12.780   2908.67     1.6131     0.0600     0.5507     0.1278     1.8456     3.6879   204.4800     1.6412     0.2596
  641   12.800   2909.66     1.5371     0.0586     0.5293     0.1280     1.7628     3.7932   204.8000     1.5580     0.2627
  642   12.820   2910.65     1.5359     0.0564     0.5299     0.1282     1.7581     3.6542   205.1200     1.5530     0.2582
  643   12.840   2911.64     1.4831     0.0517     0.5037     0.1284     1.7010     3.4678   205.4400     1.4956     0.2610
  644   12.860   2912.64     1.4470     0.0477     0.4622     0.1286     1.6458     3.2727   205.7600     1.4400     0.2393
  645   12.880   2913.65     1.3915     0.0428     0.4752     0.1288     1.5869     3.0439   206.0800     1.3808     0.2439
  646   12.900   2914.58     1.2783     0.0396     0.4773     0.1290     1.4771     3.0873   206.4000     1.2707     0.2711
  647   12.920   2915.56     1.1927     0.0392     0.5433     0.1292     1.4138     3.2788   206.7200     1.2071     0.3291
  648   12.940   2916.56     1.1589     0.0370     0.5670     0.1294     1.3896     3.1933   207.0400     1.1826     0.3550
  649   12.960   2917.59     1.1786     0.0353     0.6223     0.1296     1.4360     3.0226   207.3600     1.2286     0.3932
  650   12.980   2918.60     1.2593     0.0367     0.6307     0.1298     1.5232     2.9501   207.6800     1.3155     0.3791
  651   13.000   2919.61     1.3305     0.0416     0.6339     0.1300     1.5961     3.1354   208.0000     1.3881     0.3619
  652   13.020   2920.60     1.3294     0.0467     0.6330     0.1302     1.5978     3.4923   208.3200     1.3894     0.3662
  653   13.040   2921.60     1.3460     0.0483     0.5818     0.1304     1.5990     3.6109   208.6400     1.3904     0.3395
  654   13.060   2922.54     1.3879     0.0443     0.5284     0.1306     1.6138     3.1938   208.9600     1.4048     0.2899
  655   13.080   2923.59     1.3793     0.0411     0.5287     0.1308     1.6016     2.9722   209.2800     1.3924     0.2862
  656   13.100   2924.55     1.4255     0.0423     0.5436     0.1310     1.6506     2.9857   209.6000     1.4410     0.2811
  657   13.120   2925.58     1.4544     0.0434     0.5502     0.1312     1.6844     2.9804   209.9200     1.4744     0.2823
  658   13.140   2926.56     1.4627     0.0422     0.5368     0.1314     1.6916     2.8802   210.2400     1.4814     0.2792
  659   13.160   2927.56     1.3528     0.0358     0.5406     0.1316     1.5763     2.6044   210.5600     1.3657     0.2937
  660   13.180   2928.58     1.2648     0.0281     0.5572     0.1318     1.4977     2.2172   210.8800     1.2869     0.3287
  661   13.200   2929.54     1.2302     0.0211     0.5610     0.1320     1.4645     1.7077   211.2000     1.2533     0.3400
  662   13.220   2930.51     1.1908     0.0208     0.5830     0.1322     1.4274     1.7203   211.5200     1.2159     0.3547
  663   13.240   2931.54     1.1183     0.0233     0.6553     0.1324     1.3837     1.9082   211.8400     1.1718     0.4262
  664   13.260   2932.54     1.3337     0.0254     0.7023     0.1326     1.6274     2.0345   212.1600     1.4153     0.4035
  665   13.280   2933.57     2.2515     0.0229     0.5752     0.1328     2.5204     1.1699   212.4800     2.3079     0.2261
  666   13.300   2934.55     3.6979     0.0203     0.3305     0.1330     3.8678     0.5884   212.8000     3.6550     0.0764
  667   13.320   2935.53     4.9943     0.0197     0.1250     0.1332     5.0859     0.4078   213.1200     4.8727     0.0177
  668   13.340   2951.24     5.7313     0.0283     0.0702     0.1334     5.7688     0.5419   213.4400     5.5553    -0.0075
  669   13.360   2973.87     6.0700     0.0241     0.0166     0.1336     6.0844     0.4617   213.7600     5.8706    -0.0166
  670   13.380   2981.95     6.0114     0.0295     0.0268     0.1338     6.0216     0.4878   214.0800     5.8075    -0.0189
  671   13.400   2982.99     5.5910     0.0316     0.0642     0.1340     5.6130     0.5569   214.4000     5.3986    -0.0151
  672   13.420   2984.00     5.0422     0.0302     0.0850     0.1342     5.0740     0.5836   214.7200     4.8593    -0.0120
  673   13.440   2984.98     4.3683     0.0354     0.1365     0.1344     4.4157     0.7898   215.0400     4.2007    -0.0050
  674   13.460   2985.94     3.8449     0.0407     0.2279     0.1346     3.9277     1.0464   215.3600     3.7123     0.0169
  675   13.480   2986.94     3.5789     0.0394     0.2766     0.1348     3.6898     1.0930   215.6800     3.4742     0.0373
  676   13.500   2987.92     3.5978     0.0340     0.2247     0.1350     3.6988     0.9514   216.0000     3.4828     0.0303
  677   13.520   2988.94     3.9538     0.0255     0.1660     0.1352     4.0302     0.6545   216.3200     3.8139     0.0123
  678   13.540   2989.95     4.3064     0.0228     0.1243     0.1354     4.3615     0.5357   216.6400     4.1449    -0.0010
  679   13.560   2990.95     4.1953     0.0238     0.1214     0.1356     4.2442     0.5593   216.9600     4.0272    -0.0048
  680   13.580   2991.92     3.8721     0.0335     0.1657     0.1358     3.9342     0.8592   217.2800     3.7169     0.0032
  681   13.600   2992.92     3.6545     0.0393     0.2170     0.1360     3.7363     1.0695   217.6000     3.5187     0.0167
  682   13.620   2993.88     3.5652     0.0437     0.2771     0.1362     3.6695     1.2327   217.9200     3.4516     0.0324
  683   13.640   2994.83     4.0375     0.0421     0.2738     0.1364     4.1532     1.0926   218.2400     3.9349     0.0353
  684   13.660   2995.87     5.0259     0.0426     0.1444     0.1366     5.1213     0.9130   218.5600     4.9027     0.0186
  685   13.680   2996.88     6.2563     0.0427    -0.0244     0.1368     6.2692     0.7211   218.8800     6.0503    -0.0175
  686   13.700   2997.92     7.3802     0.0593    -0.0593     0.1370     7.3563     0.8587   219.2000     7.1371    -0.0272
  687   13.720   3000.26     7.9764     0.0500    -0.0348     0.1372     7.9644     0.6639   219.5200     7.7449    -0.0214
  688   13.740   3001.18     8.4607     0.0414    -0.0527     0.1374     8.4414     0.4892   219.8400     8.2216    -0.0223
  689   13.760   3002.16     8.2766     0.0399    -0.0823     0.1376     8.2453     0.4784   220.1600     8.0251    -0.0264
  690   13.780   3003.17     7.6721     0.0403    -0.0944     0.1378     7.6353     0.5159   220.4800     7.4148    -0.0304
  691   13.800   3004.27     7.0129     0.0415    -0.0866     0.1380     6.9651     0.5865   220.8000     6.7443    -0.0374
  692   13.820   3009.52     6.8541     0.0405    -0.1030     0.1382     6.8132     0.6179   221.1200     6.5921    -0.0357
  693   13.840   3012.55     7.0421     0.0342    -0.1192     0.1384     6.9944     0.5172   221.4400     6.7729    -0.0372
  694   13.860   3014.07     6.7597     0.0307    -0.1389     0.1386     6.7042     0.4476   221.7600     6.4825    -0.0418
  695   13.880   3015.04     6.2216     0.0337    -0.1406     0.1388     6.1626     0.5344   222.0800     5.9406    -0.0470
  696   13.900   3016.03     5.6893     0.0323    -0.1309     0.1390     5.6329     0.5585   222.4000     5.4105    -0.0505
  697   13.920   3017.02     5.2378     0.0364    -0.1175     0.1392     5.1868     0.6822   222.7200     4.9641    -0.0525
  698   13.940   3017.96     4.7800     0.0468    -0.1078     0.1394     4.7324     0.9661   223.0400     4.5093    -0.0560
  699   13.960   3018.99     4.2029     0.0422    -0.0734     0.1396     4.1656     0.9736   223.3600     3.9423    -0.0579
  700   13.980   3019.98     3.5723     0.0430    -0.0441     0.1398     3.5496     1.1736   223.6800     3.3259    -0.0583
  701   14.000   3020.94     3.0980     0.0409     0.0006     0.1400     3.0921     1.2920   224.0000     2.8681    -0.0537
  702   14.020   3021.95     2.7844     0.0357     0.0375     0.1402     2.7917     1.2635   224.3200     2.5674    -0.0477
  703   14.040   3022.94     2.4265     0.0320     0.0967     0.1404     2.4600     1.2832   224.6400     2.2353    -0.0270
  704   14.060   3023.91     2.2622     0.0297     0.1345     0.1406     2.3096     1.3113   224.9600     2.0846    -0.0134
  705   14.080   3024.92     2.2558     0.0268     0.1834     0.1408     2.3278     1.1874   225.2800     2.1025     0.0145
  706   14.100   3025.93     2.2123     0.0258     0.2237     0.1410     2.2994     1.1626   225.6000     2.0738     0.0321
  707   14.120   3026.89     2.2196     0.0299     0.2692     0.1412     2.3294     1.3502   225.9200     2.1035     0.0571
  708   14.140   3027.88     2.3227     0.0300     0.2579     0.1414     2.4345     1.2994   226.2400     2.2082     0.0565
  709   14.160   3028.90     2.3805     0.0329     0.2456     0.1416     2.4895     1.3851   226.5600     2.2629     0.0521
  710   14.180   3029.90     2.5259     0.0331     0.2239     0.1418     2.6246     1.3179   226.8800     2.3977     0.0389
  711   14.200   3030.91     2.7334     0.0336     0.1984     0.1420     2.8189     1.2468   227.2000     2.5917     0.0237
  712   14.220   3031.87     2.9177     0.0347     0.1936     0.1422     2.9978     1.1962   227.5200     2.7702     0.0175
  713   14.240   3032.88     3.2169     0.0370     0.1706     0.1424     3.2964     1.1655   227.8400     3.0685     0.0153
  714   14.260   3033.89     3.5164     0.0388     0.1104     0.1426     3.5707     1.1113   228.1600     3.3426    -0.0040
  715   14.280   3034.89     3.5848     0.0373     0.1093     0.1428     3.6273     1.0412   228.4800     3.3988    -0.0123
  716   14.300   3035.85     3.5252     0.0383     0.1385     0.1430     3.5766     1.0858   228.8000     3.3478    -0.0061
  717   14.320   3036.83     3.5510     0.0372     0.2367     0.1432     3.6395     1.0498   229.1200     3.4104     0.0198
  718   14.340   3037.86     3.8436     0.0388     0.2422     0.1434     3.9593     1.0247   229.4400     3.7298     0.0354
  719   14.360   3038.87     4.6287     0.0370     0.0607     0.1436     4.6871     0.8267   229.7600     4.4573    -0.0009
  720   14.380   3039.83     5.1642     0.0267    -0.0409     0.1438     5.1549     0.5216   230.0800     4.9248    -0.0337
  721   14.400   3040.83     5.4075     0.0196    -0.0839     0.1440     5.3813     0.3655   230.4000     5.1509    -0.0401
  722   14.420   3041.84     5.6030     0.0179    -0.0909     0.1442     5.5652     0.3205   230.7200     5.3345    -0.0439
  723   14.440   3042.80     5.7371     0.0223    -0.1020     0.1444     5.6948     0.3894   231.0400     5.4637    -0.0449
  724   14.460   3043.81     5.7543     0.0234    -0.1000     0.1446     5.7094     0.4060   231.3600     5.4780    -0.0459
  725   14.480   3044.78     5.3585     0.0267    -0.0743     0.1448     5.3237     0.4932   231.6800     5.0920    -0.0447
  726   14.500   3045.79     4.7600     0.0278    -0.0620     0.1450     4.7314     0.5757   232.0000     4.4994    -0.0473
  727   14.520   3046.78     4.3452     0.0315    -0.0249     0.1452     4.3276     0.7187   232.3200     4.0953    -0.0457
  728   14.540   3047.78     4.1679     0.0260     0.0084     0.1454     4.1691     0.6217   232.6400     3.9364    -0.0362
  729   14.560   3048.78     4.0948     0.0234     0.0261     0.1456     4.1022     0.5715   232.9600     3.8692    -0.0331
  730   14.580   3049.75     4.3048     0.0180     0.0437     0.1458     4.3222     0.4222   233.2800     4.0889    -0.0255
  731   14.600   3050.77     4.5719     0.0162     0.0469     0.1460     4.5920     0.3565   233.6000     4.3584    -0.0225
  732   14.620   3051.78     4.8802     0.0176     0.0141     0.1462     4.8920     0.3663   233.9200     4.6581    -0.0253
  733   14.640   3052.78     5.1337     0.0189    -0.0008     0.1464     5.1368     0.3710   234.2400     4.9025    -0.0284
  734   14.660   3053.75     5.1878     0.0325    -0.0067     0.1466     5.1829     0.6278   234.5600     4.9483    -0.0320
  735   14.680   3054.75     5.1336     0.0432     0.0104     0.1468     5.1364     0.8417   234.8800     4.9015    -0.0286
  736   14.700   3055.75     5.1791     0.0471    -0.0316     0.1470     5.1754     0.9116   235.2000     4.9402    -0.0315
  737   14.720   3056.76     5.1952     0.0373    -0.0772     0.1472     5.1672     0.7174   235.5200     4.9317    -0.0433
  738   14.740   3057.73     5.0798     0.0368    -0.1006     0.1474     5.0390     0.7238   235.8400     4.8032    -0.0509
  739   14.760   3058.73     5.2303     0.0349    -0.0967     0.1476     5.1883     0.6681   236.1600     4.9522    -0.0500
  740   14.780   3059.73     5.4009     0.0319    -0.1052     0.1478     5.3595     0.5942   236.4800     5.1230    -0.0481
  741   14.800   3060.74     5.7109     0.0284    -0.1360     0.1480     5.6577     0.5022   236.8000     5.4209    -0.0507
  742   14.820   3061.74     5.9410     0.0265    -0.1353     0.1482     5.8836     0.4499   237.1200     5.6465    -0.0505
  743   14.840   3062.71     6.0726     0.0189    -0.1365     0.1484     6.0153     0.3120   237.4400     5.7779    -0.0493
  744   14.860   3063.71     6.0908     0.0135    -0.1369     0.1486     6.0341     0.2222   237.7600     5.7963    -0.0489
  745   14.880   3064.72     5.9984     0.0160    -0.1420     0.1488     5.9388     0.2648   238.0800     5.7008    -0.0510
  746   14.900   3065.72     5.5450     0.0212    -0.1399     0.1490     5.4855     0.3761   238.4000     5.2471    -0.0554
  747   14.920   3066.64     5.1874     0.0243    -0.1286     0.1492     5.1312     0.4645   238.7200     4.8925    -0.0579
  748   14.940   3067.70     4.5525     0.0268    -0.1150     0.1494     4.5029     0.5692   239.0400     4.2638    -0.0628
  749   14.960   3068.61     3.8594     0.0290    -0.1002     0.1496     3.8146     0.7338   239.3600     3.5753    -0.0718
  750   14.980   3069.66     3.1680     0.0293    -0.0796     0.1498     3.1313     0.8969   239.6800     2.8916    -0.0821
  751   15.000   3070.61     2.7974     0.0269    -0.0513     0.1500     2.7710     0.9343   240.0000     2.5310    -0.0841
  752   15.020   3071.63     2.4025     0.0211    -0.0030     0.1502     2.3931     0.8636   240.3200     2.1528    -0.0801
  753   15.040   3072.63     2.0223     0.0304     0.0638     0.1504     2.0397     1.4812   240.6400     1.7990    -0.0603
  754   15.060   3073.57     1.8380     0.0344     0.1271     0.1506     1.8812     1.8728   240.9600     1.6402    -0.0293
  755   15.080   3074.57     2.0753     0.0317     0.2328     0.1508     2.1579     1.5627   241.2800     1.9166     0.0230
  756   15.100   3075.51     2.5437     0.0358     0.1844     0.1510     2.6388     1.4142   241.6000     2.3972     0.0320
  757   15.120   3076.59     2.9581     0.0362     0.0349     0.1512     2.9771     1.2519   241.9200     2.7352    -0.0386
  758   15.140   3077.62     2.9364     0.0371     0.0926     0.1514     2.9692     1.2480   242.2400     2.7270    -0.0268
  759   15.160   3078.60     2.6654     0.0550     0.1023     0.1516     2.7086     1.9947   242.5600     2.4660    -0.0198
  760   15.180   3079.58     2.4850     0.0524     0.1085     0.1518     2.5260     2.0912   242.8800     2.2831    -0.0238
  761   15.200   3080.56     2.3826     0.0442     0.1628     0.1520     2.4461     1.8296   243.2000     2.2029    -0.0004
  762   15.220   3081.53     2.2317     0.0368     0.1520     0.1522     2.3023     1.5983   243.5200     2.0588     0.0076
  763   15.240   3082.52     1.9643     0.0337     0.1154     0.1524     2.0130     1.6253   243.8400     1.7692    -0.0207
  764   15.260   3088.77     1.1273     0.0281     0.2855     0.1526     1.2460     2.2238   244.1600     1.0019     0.1301
  765   15.280   3111.74     1.2899     0.0268     0.2938     0.1528     1.4121     2.4200   244.4800     1.1676     0.1191
  766   15.300   3122.84     1.2611     0.0256     0.3969     0.1530     1.4157     1.9837   244.8000     1.1709     0.1837
  767   15.320   3123.80     1.1415     0.0237     0.4656     0.1532     1.3253     2.0576   245.1200     1.0802     0.2633
  768   15.340   3124.80     0.9851     0.0236     0.5490     0.1534     1.2024     2.3358   245.4400     0.9570     0.3808
  769   15.360   3125.80     0.8995     0.0236     0.6006     0.1536     1.1482     2.6091   245.7600     0.9025     0.4860
  770   15.380   3126.78     0.9078     0.0245     0.6139     0.1538     1.1646     2.6993   246.0800     0.9185     0.4981
  771   15.400   3127.79     0.9218     0.0248     0.6240     0.1540     1.1823     2.6998   246.4000     0.9359     0.4982
  772   15.420   3128.79     0.9408     0.0252     0.6363     0.1542     1.2065     2.6879   246.7200     0.9598     0.4984
  773   15.440   3129.75     0.9681     0.0258     0.6524     0.1544     1.2405     2.6790   247.0400     0.9934     0.4972
  774   15.460   3130.76     0.9962     0.0266     0.6577     0.1546     1.2718     2.6815   247.3600     1.0245     0.4897
  775   15.480   3131.72     1.0163     0.0268     0.6630     0.1548     1.2932     2.6431   247.6800     1.0455     0.4826
  776   15.500   3132.72     0.9991     0.0274     0.6841     0.1550     1.2838     2.7411   248.0000     1.0358     0.5048
  777   15.520   3133.72     1.0044     0.0279     0.7024     0.1552     1.2972     2.7844   248.3200     1.0489     0.5167
  778   15.540   3134.69     1.0169     0.0279     0.7192     0.1554     1.3162     2.7448   248.6400     1.0675     0.5219
  779   15.560   3135.70     1.0310     0.0281     0.7335     0.1556     1.3374     2.7311   248.9600     1.0885     0.5273
  780   15.580   3136.70     1.0489     0.0285     0.7443     0.1558     1.3599     2.7205   249.2800     1.1107     0.5264
  781   15.600   3137.70     1.0498     0.0285     0.7610     0.1560     1.3666     2.7142   249.6000     1.1170     0.5356
  782   15.620   3138.65     1.0277     0.0293     0.7656     0.1562     1.3499     2.8447   249.9200     1.0999     0.5555
  783   15.640   3139.70     1.0316     0.0292     0.7717     0.1564     1.3547     2.8321   250.2400     1.1045     0.5549
  784   15.660   3140.71     1.0452     0.0293     0.7736     0.1566     1.3697     2.8103   250.5600     1.1191     0.5505
  785   15.680   3141.70     1.0584     0.0293     0.7779     0.1568     1.3846     2.7739   250.8800     1.1338     0.5469
  786   15.700   3142.67     1.0490     0.0296     0.7752     0.1570     1.3748     2.8219   251.2000     1.1236     0.5507
  787   15.720   3143.63     1.0465     0.0297     0.7804     0.1572     1.3733     2.8319   251.5200     1.1218     0.5536
  788   15.740   3144.65     1.0357     0.0304     0.7858     0.1574     1.3650     2.9346   251.8400     1.1132     0.5630
  789   15.760   3145.66     1.0210     0.0302     0.7966     0.1576     1.3540     2.9623   252.1600     1.1018     0.5765
  790   15.780   3146.65     1.0237     0.0302     0.7967     0.1578     1.3587     2.9505   252.4800     1.1063     0.5786
  791   15.800   3147.66     1.0112     0.0302     0.8056     0.1580     1.3468     2.9775   252.8000     1.0940     0.5860
  792   15.820   3148.63     1.0060     0.0304     0.8207     0.1582     1.3493     3.0118   253.1200     1.0962     0.6013
  793   15.840   3149.62     1.0039     0.0306     0.8329     0.1584     1.3520     3.0336   253.4400     1.0986     0.6103
  794   15.860   3150.60     0.9955     0.0304     0.8403     0.1586     1.3469     3.0499   253.7600     1.0932     0.6203
  795   15.880   3151.58     0.9977     0.0300     0.8509     0.1588     1.3540     3.0114   254.0800     1.0999     0.6269
  796   15.900   3152.56     1.0000     0.0301     0.8635     0.1590     1.3611     3.0061   254.4000     1.1067     0.6330
  797   15.920   3153.48     1.0023     0.0302     0.8643     0.1592     1.3645     3.0215   254.7200     1.1098     0.6335
  798   15.940   3154.44     1.0087     0.0306     0.8646     0.1594     1.3721     3.0344   255.0400     1.1171     0.6318
  799   15.960   3155.51     1.0107     0.0313     0.8579     0.1596     1.3713     3.0890   255.3600     1.1159     0.6263
  800   15.980   3156.47     1.0081     0.0310     0.8476     0.1598     1.3659     3.0774   255.6800     1.1102     0.6234
  801   16.000   3157.47     1.0139     0.0308     0.8505     0.1600     1.3696     3.0361   256.0000     1.1136     0.6168
  802   16.020   3158.48     1.0052     0.0305     0.8591     0.1602     1.3657     3.0238   256.3200     1.1094     0.6294
  803   16.040   3159.50     1.0018     0.0298     0.8408     0.1604     1.3597     2.9725   256.6400     1.1031     0.6270
  804   16.060   3160.49     1.0062     0.0302     0.8587     0.1606     1.3654     3.0092   256.9600     1.1084     0.6267
  805   16.080   3161.40     1.0111     0.0303     0.8616     0.1608     1.3724     2.9999   257.2800     1.1151     0.6273
  806   16.100   3162.36     1.0016     0.0303     0.8548     0.1610     1.3633     3.0191   257.6000     1.1057     0.6331
  807   16.120   3163.37     0.9984     0.0307     0.8397     0.1612     1.3512     3.0778   257.9200     1.0933     0.6209
  808   16.140   3164.41     1.0077     0.0299     0.8408     0.1614     1.3624     2.9843   258.2400     1.1042     0.6187
  809   16.160   3165.43     1.0363     0.0308     0.8334     0.1616     1.3876     2.9830   258.5600     1.1291     0.5978
  810   16.180   3166.42     1.0392     0.0313     0.8462     0.1618     1.3919     3.0120   258.8800     1.1330     0.5983
  811   16.200   3167.42     1.0439     0.0304     0.8381     0.1620     1.3996     2.9166   259.2000     1.1404     0.6006
  812   16.220   3168.42     1.0397     0.0303     0.8299     0.1622     1.3916     2.9055   259.5200     1.1321     0.5968
  813   16.240   3169.41     1.0369     0.0294     0.8213     0.1624     1.3834     2.8388   259.8400     1.1235     0.5896
  814   16.260   3170.35     1.0523     0.0301     0.8333     0.1626     1.3990     2.8612   260.1600     1.1388     0.5821
  815   16.280   3171.34     1.0727     0.0300     0.8414     0.1628     1.4256     2.8051   260.4800     1.1651     0.5815
  816   16.300   3172.40     1.1128     0.0311     0.8400     0.1630     1.4668     2.8212   260.8000     1.2060     0.5638
  817   16.320   3173.35     1.1474     0.0315     0.8659     0.1632     1.5099     2.7498   261.1200     1.2487     0.5604
  818   16.340   3174.36     1.1842     0.0319     0.8325     0.1634     1.5378     2.7079   261.4400     1.2764     0.5315
  819   16.360   3175.37     1.1332     0.0311     0.7867     0.1636     1.4692     2.7255   261.7600     1.2075     0.5271
  820   16.380   3176.37     1.0860     0.0310     0.7699     0.1638     1.4083     2.8285   262.0800     1.1462     0.5265
  821   16.400   3177.29     1.0512     0.0310     0.8036     0.1640     1.3856     2.9378   262.4000     1.1232     0.5627
  822   16.420   3178.33     1.0442     0.0321     0.8126     0.1642     1.3866     3.0694   262.7200     1.1239     0.5793
  823   16.440   3179.24     1.0513     0.0317     0.8268     0.1644     1.3983     3.0117   263.0400     1.1353     0.5830
  824   16.460   3180.35     1.0537     0.0315     0.8210     0.1646     1.3994     2.9874   263.3600     1.1360     0.5796
  825   16.480   3181.27     1.0537     0.0320     0.8149     0.1648     1.3961     3.0413   263.6800     1.1324     0.5743
  826   16.500   3182.27     1.0464     0.0319     0.8264     0.1650     1.3921     3.0507   264.0000     1.1281     0.5834
  827   16.520   3183.28     1.0314     0.0326     0.8258     0.1652     1.3780     3.1592   264.3200     1.1137     0.5926
  828   16.540   3184.29     1.0467     0.0320     0.8155     0.1654     1.3920     3.0640   264.6400     1.1274     0.5826
  829   16.560   3185.25     1.0762     0.0318     0.8105     0.1656     1.4182     2.9623   264.9600     1.1533     0.5625
  830   16.580   3186.30     1.0251     0.0322     0.8096     0.1658     1.3636     3.1298   265.2800     1.0983     0.5828
  831   16.600   3187.34     1.0120     0.0324     0.8288     0.1660     1.3544     3.2027   265.6000     1.0888     0.5963
  832   16.620   3188.34     0.9901     0.0322     0.8330     0.1662     1.3402     3.2389   265.9200     1.0743     0.6212
  833   16.640   3189.29     1.0032     0.0311     0.8386     0.1664     1.3550     3.0988   266.2400     1.0887     0.6165
  834   16.660   3190.30     1.0118     0.0314     0.8450     0.1666     1.3647     3.1132   266.5600     1.0981     0.6134
  835   16.680   3191.26     1.0076     0.0317     0.8551     0.1668     1.3655     3.1535   266.8800     1.0986     0.6238
  836   16.700   3192.28     1.0117     0.0316     0.8591     0.1670     1.3722     3.1087   267.2000     1.1050     0.6257
  837   16.720   3193.24     1.0033     0.0318     0.8570     0.1672     1.3640     3.1666   267.5200     1.0965     0.6308
  838   16.740   3194.25     0.9975     0.0315     0.8452     0.1674     1.3538     3.1453   267.8400     1.0860     0.6271
  839   16.760   3195.25     1.0039     0.0308     0.8533     0.1676     1.3614     3.0666   268.1600     1.0932     0.6253
  840   16.780   3196.23     0.9983     0.0313     0.8619     0.1678     1.3600     3.1403   268.4800     1.0915     0.6353
  841   16.800   3197.20     1.0314     0.0317     0.8617     0.1680     1.3930     3.0854   268.8000     1.1242     0.6165
  842   16.820   3198.16     1.0398     0.0316     0.8644     0.1682     1.4034     3.0369   269.1200     1.1343     0.6149
  843   16.840   3199.20     1.0374     0.0317     0.8558     0.1684     1.3973     3.0544   269.4400     1.1279     0.6104
  844   16.860   3200.17     1.0378     0.0311     0.8339     0.1686     1.3909     2.9956   269.7600     1.1212     0.5994
  845   16.880   3201.17     1.0347     0.0310     0.8394     0.1688     1.3858     2.9905   270.0800     1.1157     0.5980
  846   16.900   3202.16     1.0345     0.0314     0.8452     0.1690     1.3888     3.0338   270.4000     1.1184     0.6031
  847   16.920   3203.16     1.0594     0.0317     0.8540     0.1692     1.4165     3.0047   270.7200     1.1458     0.5944
  848   16.940   3204.14     1.0531     0.0322     0.8551     0.1694     1.4136     3.0490   271.0400     1.1425     0.6030
  849   16.960   3205.15     1.0466     0.0317     0.8410     0.1696     1.4014     3.0323   271.3600     1.1301     0.5976
  850   16.980   3206.15     1.0686     0.0317     0.8316     0.1698     1.4186     2.9785   271.6800     1.1469     0.5785
  851   17.000   3207.14     1.0717     0.0321     0.8483     0.1700     1.4243     2.9893   272.0000     1.1523     0.5811
  852   17.020   3208.11     1.0834     0.0327     0.8483     0.1702     1.4422     3.0286   272.3200     1.1699     0.5849
  853   17.040   3209.12     1.0950     0.0331     0.8478     0.1704     1.4494     3.0242   272.6400     1.1768     0.5723
  854   17.060   3210.08     1.0891     0.0326     0.8552     0.1706     1.4479     2.9966   272.9600     1.1749     0.5818
  855   17.080   3211.10     1.0960     0.0324     0.8590     0.1708     1.4559     2.9595   273.2800     1.1826     0.5802
  856   17.100   3212.11     1.1195     0.0336     0.8679     0.1710     1.4833     3.0385   273.6000     1.2097     0.5746
  857   17.120   3213.11     1.1280     0.0354     0.8622     0.1712     1.4918     3.1653   273.9200     1.2179     0.5706
  858   17.140   3214.07     1.1339     0.0372     0.8645     0.1714     1.4941     3.2920   274.2400     1.2198     0.5624
  859   17.160   3215.05     1.1395     0.0368     0.8544     0.1716     1.5007     3.2422   274.5600     1.2262     0.5615
  860   17.180   3216.03     1.1443     0.0353     0.8636     0.1718     1.5064     3.0894   274.8800     1.2315     0.5606
  861   17.200   3220.13     1.1490     0.0351     0.8634     0.1720     1.5112     3.0628   275.2000     1.2360     0.5586
  862   17.220   3235.96     1.1570     0.0354     0.8660     0.1722     1.5204     3.0840   275.5200     1.2449     0.5566
  863   17.240   3251.79     1.1651     0.0346     0.8687     0.1724     1.5295     3.0137   275.8400     1.2537     0.5547
  864   17.260   3259.91     1.1550     0.0345     0.8849     0.1726     1.5305     2.9728   276.1600     1.2543     0.5751
  865   17.280   3260.92     1.1464     0.0340     0.8790     0.1728     1.5161     2.9687   276.4800     1.2397     0.5708
  866   17.300   3261.88     1.1361     0.0339     0.8852     0.1730     1.5095     2.9785   276.8000     1.2327     0.5809
  867   17.320   3262.79     1.1398     0.0336     0.8842     0.1732     1.5101     2.9515   277.1200     1.2330     0.5746
  868   17.340   3263.84     1.1502     0.0331     0.8721     0.1734     1.5209     2.8731   277.4400     1.2435     0.5704
  869   17.360   3264.80     1.1495     0.0331     0.8615     0.1736     1.5132     2.8761   277.7600     1.2355     0.5605
  870   17.380   3265.80     1.1553     0.0331     0.8593     0.1738     1.5190     2.8787   278.0800     1.2409     0.5577
  871   17.400   3266.81     1.1630     0.0330     0.8544     0.1740     1.5197     2.8399   278.4000     1.2413     0.5441
  872   17.420   3267.78     1.1475     0.0336     0.8549     0.1742     1.5054     2.9233   278.7200     1.2267     0.5527
  873   17.440   3268.79     1.1466     0.0334     0.8466     0.1744     1.5051     2.9201   279.0400     1.2260     0.5540
  874   17.460   3269.79     1.1380     0.0327     0.8421     0.1746     1.4886     2.8678   279.3600     1.2093     0.5460
  875   17.480   3270.75     1.1375     0.0331     0.8451     0.1748     1.4899     2.9151   279.6800     1.2102     0.5488
  876   17.500   3271.75     1.1353     0.0329     0.8558     0.1750     1.4941     2.8963   280.0000     1.2141     0.5595
  877   17.520   3272.71     1.1253     0.0328     0.8661     0.1752     1.4867     2.9147   280.3200     1.2064     0.5680
  878   17.540   3273.71     1.1395     0.0327     0.8555     0.1754     1.5014     2.8800   280.6400     1.2208     0.5622
  879   17.560   3274.68     1.1391     0.0319     0.8514     0.1756     1.4957     2.7958   280.9600     1.2147     0.5544
  880   17.580   3275.70     1.1214     0.0320     0.8515     0.1758     1.4798     2.8483   281.2800     1.1985     0.5653
  881   17.600   3276.71     1.1291     0.0321     0.8462     0.1760     1.4837     2.8431   281.6000     1.2021     0.5560
  882   17.620   3277.72     1.1290     0.0330     0.8622     0.1762     1.4905     2.9214   281.9200     1.2085     0.5663
  883   17.640   3278.67     1.1283     0.0330     0.8604     0.1764     1.4908     2.9232   282.2400     1.2085     0.5682
  884   17.660   3279.68     1.1310     0.0328     0.8643     0.1766     1.4915     2.8971   282.5600     1.2089     0.5638
  885   17.680   3280.69     1.1297     0.0329     0.8688     0.1768     1.4961     2.9132   282.8800     1.2132     0.5733
  886   17.700   3281.66     1.1355     0.0323     0.8663     0.1770     1.4985     2.8590   283.2000     1.2153     0.5655
  887   17.720   3282.65     1.1347     0.0324     0.8784     0.1772     1.5021     2.8638   283.5200     1.2186     0.5725
  888   17.740   3283.65     1.1589     0.0334     0.8825     0.1774     1.5289     2.8966   283.8400     1.2451     0.5651
  889   17.760   3284.61     1.1643     0.0332     0.8807     0.1776     1.5353     2.8490   284.1600     1.2512     0.5641
  890   17.780   3285.61     1.1424     0.0334     0.8838     0.1778     1.5121     2.9116   284.4800     1.2277     0.5722
  891   17.800   3286.59     1.1433     0.0328     0.8489     0.1780     1.5063     2.8884   284.8000     1.2215     0.5619
  892   17.820   3287.57     1.1606     0.0334     0.8638     0.1782     1.5207     2.8772   285.1200     1.2356     0.5498
  893   17.840   3288.55     1.1504     0.0331     0.8939     0.1784     1.5202     2.8765   285.4400     1.2348     0.5687
  894   17.860   3289.53     1.1466     0.0337     0.8943     0.1786     1.5219     2.9444   285.7600     1.2362     0.5785
  895   17.880   3290.53     1.1573     0.0334     0.8769     0.1788     1.5268     2.8884   286.0800     1.2408     0.5651
  896   17.900   3291.54     1.1586     0.0333     0.8858     0.1790     1.5306     2.8704   286.4000     1.2442     0.5680
  897   17.920   3292.53     1.1638     0.0327     0.8907     0.1792     1.5376     2.8157   286.7200     1.2509     0.5683
  898   17.940   3293.54     1.1667     0.0325     0.8862     0.1794     1.5411     2.7848   287.0400     1.2541     0.5677
  899   17.960   3294.51     1.1540     0.0333     0.8914     0.1796     1.5272     2.8873   287.3600     1.2398     0.5718
  900   17.980   3295.48     1.1488     0.0334     0.8883     0.1798     1.5244     2.9093   287.6800     1.2367     0.5777
  901   18.000   3296.47     1.1511     0.0335     0.9012     0.1800     1.5272     2.9069   288.0000     1.2392     0.5773
  902   18.020   3297.47     1.1506     0.0341     0.8829     0.1802     1.5276     2.9661   288.3200     1.2393     0.5789
  903   18.040   3298.47     1.1567     0.0346     0.8938     0.1804     1.5296     2.9865   288.6400     1.2409     0.5701
  904   18.060   3299.46     1.1484     0.0348     0.8919     0.1806     1.5257     3.0299   288.9600     1.2368     0.5804
  905   18.080   3300.47     1.1569     0.0346     0.9079     0.1808     1.5355     2.9901   289.2800     1.2462     0.5782
  906   18.100   3301.43     1.1559     0.0337     0.9095     0.1810     1.5341     2.9152   289.6000     1.2445     0.5782
  907   18.120   3302.43     1.1509     0.0332     0.9187     0.1812     1.5341     2.8829   289.9200     1.2441     0.5876
  908   18.140   3303.39     1.1598     0.0333     0.9245     0.1814     1.5478     2.8783   290.2400     1.2576     0.5904
  909   18.160   3304.39     1.1718     0.0338     0.9215     0.1816     1.5587     2.8885   290.5600     1.2681     0.5832
  910   18.180   3305.35     1.1862     0.0342     0.9249     0.1818     1.5739     2.8884   290.8800     1.2831     0.5779
  911   18.200   3306.37     1.1908     0.0342     0.9219     0.1820     1.5797     2.8736   291.2000     1.2885     0.5773
  912   18.220   3307.37     1.1858     0.0343     0.9023     0.1822     1.5663     2.8901   291.5200     1.2748     0.5678
  913   18.240   3308.31     1.1817     0.0336     0.9277     0.1824     1.5679     2.8401   291.8400     1.2760     0.5776
  914   18.260   3309.32     1.1616     0.0339     0.9327     0.1826     1.5543     2.9121   292.1600     1.2622     0.5962
  915   18.280   3310.34     1.1800     0.0338     0.9261     0.1828     1.5704     2.8677   292.4800     1.2779     0.5842
  916   18.300   3311.30     1.1746     0.0337     0.9204     0.1830     1.5612     2.8633   292.8000     1.2684     0.5815
  917   18.320   3312.30     1.1796     0.0342     0.9132     0.1832     1.5644     2.9060   293.1200     1.2713     0.5765
  918   18.340   3313.34     1.1787     0.0338     0.9154     0.1834     1.5638     2.8622   293.4400     1.2703     0.5773
  919   18.360   3314.29     1.1644     0.0339     0.9073     0.1836     1.5457     2.9042   293.7600     1.2520     0.5786
  920   18.380   3315.31     1.1652     0.0335     0.9165     0.1838     1.5493     2.8794   294.0800     1.2552     0.5822
  921   18.400   3316.27     1.1624     0.0334     0.9288     0.1840     1.5528     2.8690   294.4000     1.2584     0.5925
  922   18.420   3317.27     1.1654     0.0334     0.9171     0.1842     1.5534     2.8693   294.7200     1.2586     0.5875
  923   18.440   3318.28     1.1721     0.0331     0.9180     0.1844     1.5558     2.8309   295.0400     1.2608     0.5783
  924   18.460   3319.28     1.1663     0.0334     0.9142     0.1846     1.5517     2.8696   295.3600     1.2563     0.5835
  925   18.480   3320.31     1.1728     0.0339     0.9161     0.1848     1.5561     2.8901   295.6800     1.2604     0.5774
  926   18.500   3321.27     1.1604     0.0337     0.9333     0.1850     1.5521     2.9009   296.0000     1.2561     0.5951
  927   18.520   3322.28     1.1608     0.0338     0.9310     0.1852     1.5519     2.9106   296.3200     1.2556     0.5942
  928   18.540   3323.28     1.1689     0.0343     0.9183     0.1854     1.5551     2.9429   296.6400     1.2585     0.5834
  929   18.560   3324.24     1.1816     0.0338     0.9286     0.1856     1.5700     2.8717   296.9600     1.2730     0.5806
  930   18.580   3325.24     1.1633     0.0339     0.9351     0.1858     1.5571     2.8994   297.2800     1.2598     0.5968
  931   18.600   3326.20     1.1585     0.0339     0.9210     0.1860     1.5455     2.9376   297.6000     1.2479     0.5893
  932   18.620   3327.20     1.1628     0.0345     0.9233     0.1862     1.5505     2.9588   297.9200     1.2526     0.5883
  933   18.640   3328.19     1.1584     0.0335     0.9276     0.1864     1.5479     2.8883   298.2400     1.2496     0.5928
  934   18.660   3329.13     1.1599     0.0337     0.9319     0.1866     1.5509     2.8995   298.5600     1.2524     0.5944
  935   18.680   3330.07     1.1621     0.0338     0.9284     0.1868     1.5511     2.9088   298.8800     1.2522     0.5904
  936   18.700   3331.05     1.1566     0.0335     0.9285     0.1870     1.5475     2.8988   299.2000     1.2483     0.5957
  937   18.720   3332.03     1.1583     0.0334     0.9201     0.1872     1.5461     2.8827   299.5200     1.2466     0.5906
  938   18.740   3333.05     1.1557     0.0333     0.9180     0.1874     1.5423     2.8797   299.8400     1.2425     0.5901
  939   18.760   3334.16     1.1599     0.0336     0.9128     0.1876     1.5442     2.9028   300.1600     1.2441     0.5848
  940   18.780   3335.09     1.1585     0.0338     0.9027     0.1878     1.5391     2.9190   300.4800     1.2387     0.5801
  941   18.800   3336.14     1.1604     0.0333     0.9223     0.1880     1.5435     2.8729   300.8000     1.2427     0.5826
  942   18.820   3337.13     1.1595     0.0337     0.9332     0.1882     1.5512     2.9022   301.1200     1.2501     0.5955
  943   18.840   3338.01     1.1799     0.0333     0.9349     0.1884     1.5706     2.8230   301.4400     1.2691     0.5844
  944   18.860   3339.04     1.1730     0.0338     0.9473     0.1886     1.5701     2.8832   301.7600     1.2684     0.5968
  945   18.880   3339.94     1.2070     0.0337     0.9319     0.1888     1.5978     2.7814   302.0800     1.2957     0.5724
  946   18.900   3341.10     1.1816     0.0329     0.9302     0.1890     1.5724     2.7867   302.4000     1.2700     0.5838
  947   18.920   3342.09     1.1733     0.0337     0.9342     0.1892     1.5641     2.8565   302.7200     1.2614     0.5876
  948   18.940   3343.11     1.1645     0.0355     0.9312     0.1894     1.5561     3.0363   303.0400     1.2531     0.5930
  949   18.960   3344.08     1.1637     0.0365     0.9329     0.1896     1.5553     3.1384   303.3600     1.2520     0.5933
  950   18.980   3345.02     1.1594     0.0355     0.9343     0.1898     1.5512     3.0540   303.6800     1.2475     0.5956
  951   19.000   3345.91     1.1539     0.0351     0.9144     0.1900     1.5424     3.0388   304.0000     1.2384     0.5936
  952   19.020   3348.71     1.1521     0.0341     0.9193     0.1902     1.5371     2.9579   304.3200     1.2328     0.5893
  953   19.040   3370.19     1.1528     0.0337     0.9271     0.1904     1.5411     2.9249   304.6400     1.2365     0.5936
  954   19.060   3391.67     1.1536     0.0342     0.9393     0.1906     1.5451     2.9672   304.9600     1.2401     0.5979
  955   19.080   3393.79     1.1641     0.0336     0.9369     0.1908     1.5593     2.9018   305.2800     1.2540     0.5982
  956   19.100   3394.78     1.1577     0.0333     0.9275     0.1910     1.5485     2.8648   305.6000     1.2429     0.5950
  957   19.120   3395.77     1.1489     0.0336     0.9337     0.1912     1.5408     2.9191   305.9200     1.2349     0.6008
  958   19.140   3396.80     1.1584     0.0327     0.9367     0.1914     1.5531     2.8341   306.2400     1.2469     0.6003
  959   19.160   3397.69     1.1497     0.0317     0.9299     0.1916     1.5411     2.7511   306.5600     1.2345     0.5996
  960   19.180   3398.57     1.1437     0.0318     0.9223     0.1918     1.5331     2.7758   306.8800     1.2262     0.5997
  961   19.200   3399.59     1.1527     0.0326     0.9208     0.1920     1.5363     2.8260   307.2000     1.2291     0.5869
  962   19.220   3400.55     1.1701     0.0326     0.9270     0.1922     1.5605     2.7984   307.5200     1.2530     0.5886
  963   19.240   3401.60     1.1673     0.0331     0.9318     0.1924     1.5584     2.8213   307.8400     1.2506     0.5907
  964   19.260   3402.67     1.1552     0.0333     0.9234     0.1926     1.5455     2.8915   308.1600     1.2374     0.5955
  965   19.280   3403.68     1.1533     0.0320     0.9148     0.1928     1.5360     2.7775   308.4800     1.2276     0.5853
  966   19.300   3404.64     1.1497     0.0323     0.9381     0.1930     1.5409     2.8120   308.8000     1.2321     0.5993
  967   19.320   3405.47     1.1613     0.0327     0.9449     0.1932     1.5580     2.8123   309.1200     1.2489     0.6016
  968   19.340   3406.49     1.1665     0.0332     0.9497     0.1934     1.5651     2.8441   309.4400     1.2557     0.6018
  969   19.360   3407.40     1.1675     0.0331     0.9479     0.1936     1.5648     2.8363   309.7600     1.2551     0.5994
  970   19.380   3408.61     1.1613     0.0328     0.9469     0.1938     1.5587     2.8314   310.0800     1.2487     0.6026
  971   19.400   3409.61     1.1634     0.0325     0.9469     0.1940     1.5609     2.7897   310.4000     1.2505     0.6018
  972   19.420   3410.57     1.1683     0.0341     0.9541     0.1942     1.5679     2.9186   310.7200     1.2572     0.6023
  973   19.440   3411.57     1.1651     0.0334     0.9499     0.1944     1.5667     2.8644   311.0400     1.2557     0.6067
  974   19.460   3412.45     1.1589     0.0330     0.9390     0.1946     1.5549     2.8510   311.3600     1.2435     0.6017
  975   19.480   3413.39     1.1533     0.0332     0.9437     0.1948     1.5487     2.8670   311.6800     1.2371     0.6037
  976   19.500   3414.37     1.1626     0.0341     0.9536     0.1950     1.5598     2.9479   312.0000     1.2478     0.6016
  977   19.520   3415.39     1.1601     0.0340     0.9695     0.1952     1.5643     2.9304   312.3200     1.2519     0.6127
  978   19.540   3416.52     1.1558     0.0334     0.9527     0.1954     1.5591     2.8962   312.6400     1.2465     0.6137
  979   19.560   3417.52     1.1581     0.0331     0.9593     0.1956     1.5597     2.8622   312.9600     1.2468     0.6102
  980   19.580   3418.53     1.1610     0.0328     0.9588     0.1958     1.5648     2.8328   313.2800     1.2515     0.6117
  981   19.600   3419.49     1.1756     0.0331     0.9501     0.1960     1.5758     2.8140   313.6000     1.2622     0.5997
  982   19.620   3420.44     1.1731     0.0326     0.9597     0.1962     1.5751     2.7779   313.9200     1.2612     0.6034
  983   19.640   3421.37     1.1613     0.0329     0.9644     0.1964     1.5668     2.8315   314.2400     1.2526     0.6141
  984   19.660   3422.44     1.1687     0.0329     0.9627     0.1966     1.5713     2.8170   314.5600     1.2567     0.6063
  985   19.680   3423.48     1.1527     0.0336     0.9851     0.1968     1.5647     2.8922   314.8800     1.2498     0.6274
  986   19.700   3424.47     1.1405     0.0329     0.9665     0.1970     1.5475     2.8889   315.2000     1.2323     0.6264
  987   19.720   3425.43     1.1606     0.0332     0.9778     0.1972     1.5679     2.8664   315.5200     1.2524     0.6169
  988   19.740   3426.42     1.1535     0.0335     0.9758     0.1974     1.5648     2.8985   315.8400     1.2490     0.6262
  989   19.760   3427.46     1.1386     0.0330     0.9657     0.1976     1.5480     2.9075   316.1600     1.2319     0.6310
  990   19.780   3428.38     1.1575     0.0326     0.9656     0.1978     1.5640     2.8252   316.4800     1.2475     0.6173
  991   19.800   3429.30     1.1660     0.0320     0.9551     0.1980     1.5698     2.7439   316.8000     1.2530     0.6094
  992   19.820   3430.35     1.1669     0.0324     0.9669     0.1982     1.5730     2.7790   317.1200     1.2558     0.6120
  993   19.840   3431.40     1.1855     0.0334     0.9580     0.1984     1.5905     2.8291   317.4400     1.2731     0.6016
  994   19.860   3432.34     1.2114     0.0329     0.9687     0.1986     1.6143     2.7184   317.7600     1.2966     0.5867
  995   19.880   3433.39     1.2048     0.0329     0.9674     0.1988     1.6111     2.7290   318.0800     1.2930     0.5944
  996   19.900   3434.39     1.1909     0.0332     0.9547     0.1990     1.5980     2.7902   318.4000     1.2796     0.6019
  997   19.920   3435.35     1.2049     0.0337     0.9453     0.1992     1.5952     2.8010   318.7200     1.2765     0.5719
  998   19.940   3436.37     1.1782     0.0334     0.9566     0.1994     1.5781     2.8309   319.0400     1.2591     0.5980
  999   19.960   3437.33     1.1786     0.0327     0.9389     0.1996     1.5770     2.7790   319.3600     1.2576     0.5955
 1000   19.980   3438.38     1.1655     0.0326     0.9449     0.1998     1.5614     2.7876   319.6800     1.2417     0.5983
 1001   20.000   3439.38     1.1591     0.0325     0.9439     0.2000     1.5553     2.8014   320.0000     1.2353     0.6019
 1002   20.020   3440.37     1.1711     0.0328     0.9409     0.2002     1.5670     2.8055   320.3200     1.2467     0.5954
 1003   20.040   3441.37     1.1663     0.0328     0.9343     0.2004     1.5593     2.8120   320.6400     1.2387     0.5936
 1004   20.060   3442.37     1.1606     0.0326     0.9401     0.2006     1.5577     2.8104   320.9600     1.2368     0.6023
 1005   20.080   3443.30     1.1570     0.0322     0.9544     0.2008     1.5549     2.7866   321.2800     1.2336     0.6052
 1006   20.100   3444.36     1.1552     0.0324     0.9511     0.2010     1.5553     2.8002   321.6000     1.2337     0.6093
 1007   20.120   3445.33     1.1593     0.0329     0.9587     0.2012     1.5587     2.8351   321.9200     1.2368     0.6063
 1008   20.140   3446.34     1.1646     0.0331     0.9475     0.2014     1.5656     2.8429   322.2400     1.2433     0.6059
 1009   20.160   3447.31     1.1712     0.0333     0.9388     0.2016     1.5684     2.8427   322.5600     1.2459     0.5973
 1010   20.180   3448.31     1.1825     0.0342     0.9400     0.2018     1.5752     2.8909   322.8800     1.2523     0.5854
 1011   20.200   3449.31     1.1771     0.0340     0.9443     0.2020     1.5718     2.8873   323.2000     1.2486     0.5909
 1012   20.220   3450.35     1.1735     0.0334     0.9453     0.2022     1.5678     2.8502   323.5200     1.2443     0.5919
 1013   20.240   3451.30     1.1815     0.0326     0.9476     0.2024     1.5780     2.7616   323.8400     1.2541     0.5914
 1014   20.260   3452.28     1.1784     0.0326     0.9681     0.2026     1.5823     2.7694   324.1600     1.2581     0.6033
 1015   20.280   3453.33     1.1926     0.0332     0.9817     0.2028     1.6037     2.7826   324.4800     1.2792     0.6066
 1016   20.300   3454.31     1.1852     0.0335     0.9692     0.2030     1.5953     2.8298   324.8000     1.2705     0.6087
 1017   20.320   3455.32     1.1956     0.0340     0.9538     0.2032     1.5973     2.8427   325.1200     1.2722     0.5920
 1018   20.340   3456.34     1.1981     0.0338     0.9656     0.2034     1.6042     2.8141   325.4400     1.2788     0.5971
 1019   20.360   3457.29     1.1887     0.0330     0.9485     0.2036     1.5912     2.7782   325.7600     1.2654     0.5964
 1020   20.380   3458.29     1.1882     0.0336     0.9512     0.2038     1.5846     2.8250   326.0800     1.2585     0.5880
 1021   20.400   3459.30     1.1705     0.0341     0.9656     0.2040     1.5732     2.9115   326.4000     1.2468     0.6055
 1022   20.420   3460.31     1.1703     0.0333     0.9740     0.2042     1.5771     2.8472   326.7200     1.2504     0.6113
 1023   20.440   3461.30     1.1498     0.0333     0.9736     0.2044     1.5593     2.8907   327.0400     1.2323     0.6253
 1024   20.460   3462.30     1.1575     0.0319     0.9539     0.2046     1.5573     2.7575   327.3600     1.2299     0.6075
 1025   20.480   3463.29     1.1491     0.0314     0.9636     0.2048     1.5525     2.7321   327.6800     1.2249     0.6169
 1026   20.500   3464.29     1.1423     0.0318     0.9577     0.2050     1.5468     2.7877   328.0000     1.2188     0.6220
 1027   20.520   3465.25     1.1435     0.0323     0.9547     0.2052     1.5443     2.8219   328.3200     1.2160     0.6160
 1028   20.540   3466.25     1.1324     0.0329     0.9640     0.2054     1.5376     2.9063   328.6400     1.2090     0.6281
 1029   20.560   3467.28     1.1377     0.0326     0.9556     0.2056     1.5394     2.8656   328.9600     1.2104     0.6202
 1030   20.580   3468.28     1.1596     0.0331     0.9618     0.2058     1.5644     2.8665   329.2800     1.2352     0.6138
 1031   20.600   3469.27     1.1762     0.0332     0.9649     0.2060     1.5800     2.8271   329.6000     1.2504     0.6043
 1032   20.620   3470.31     1.1654     0.0341     0.9524     0.2062     1.5672     2.9259   329.9200     1.2373     0.6065
 1033   20.640   3471.31     1.1489     0.0340     0.9533     0.2064     1.5510     2.9514   330.2400     1.2208     0.6153
 1034   20.660   3472.32     1.1488     0.0331     0.9505     0.2066     1.5511     2.8763   330.5600     1.2206     0.6155
 1035   20.680   3473.29     1.1368     0.0331     0.9514     0.2068     1.5355     2.8988   330.8800     1.2046     0.6165
 1036   20.700   3474.29     1.1385     0.0333     0.9511     0.2070     1.5364     2.9301   331.2000     1.2052     0.6143
 1037   20.720   3475.25     1.1384     0.0329     0.9543     0.2072     1.5377     2.8916   331.5200     1.2061     0.6164
 1038   20.740   3476.25     1.1396     0.0327     0.9477     0.2074     1.5375     2.8716   331.8400     1.2057     0.6138
 1039   20.760   3477.20     1.1373     0.0324     0.9492     0.2076     1.5354     2.8527   332.1600     1.2032     0.6153
 1040   20.780   3478.20     1.1401     0.0321     0.9614     0.2078     1.5420     2.8191   332.4800     1.2096     0.6193
 1041   20.800   3479.14     1.1325     0.0329     0.9630     0.2080     1.5379     2.8905   332.8000     1.2051     0.6284
 1042   20.820   3480.23     1.1373     0.0339     0.9683     0.2082     1.5414     2.9848   333.1200     1.2082     0.6239
 1043   20.840   3481.20     1.1320     0.0349     0.9814     0.2084     1.5435     3.0791   333.4400     1.2101     0.6376
 1044   20.860   3482.20     1.1261     0.0353     0.9745     0.2086     1.5373     3.1250   333.7600     1.2035     0.6402
 1045   20.880   3483.19     1.1358     0.0345     0.9640     0.2088     1.5411     3.0387   334.0800     1.2070     0.6266
 1046   20.900   3484.20     1.1302     0.0336     0.9601     0.2090     1.5340     2.9694   334.4000     1.1996     0.6273
 1047   20.920   3498.59     1.1256     0.0333     0.9575     0.2092     1.5281     2.9430   334.7200     1.1934     0.6278
 1048   20.940   3515.23     1.1191     0.0322     0.9548     0.2094     1.5205     2.8460   335.0400     1.1854     0.6296
 1049   20.960   3530.87     1.1120     0.0324     0.9566     0.2096     1.5126     2.9018   335.3600     1.1772     0.6321
 1050   20.980   3531.88     1.1019     0.0316     0.9419     0.2098     1.5003     2.8650   335.6800     1.1646     0.6343
 1051   21.000   3532.87     1.0908     0.0305     0.9310     0.2100     1.4834     2.7875   336.0000     1.1474     0.6316
 1052   21.020   3533.81     1.0891     0.0301     0.9293     0.2102     1.4804     2.7665   336.3200     1.1441     0.6306
 1053   21.040   3534.82     1.0969     0.0312     0.9334     0.2104     1.4880     2.8486   336.6400     1.1513     0.6259
 1054   21.060   3535.84     1.1133     0.0313     0.9450     0.2106     1.5086     2.8208   336.9600     1.1717     0.6236
 1055   21.080   3536.84     1.1265     0.0318     0.9377     0.2108     1.5199     2.8184   337.2800     1.1826     0.6139
 1056   21.100   3537.85     1.1120     0.0314     0.9338     0.2110     1.5038     2.8201   337.6000     1.1662     0.6189
 1057   21.120   3538.85     1.1173     0.0320     0.9277     0.2112     1.5058     2.8670   337.9200     1.1679     0.6112
 1058   21.140   3539.88     1.1169     0.0314     0.9346     0.2114     1.5094     2.8170   338.2400     1.1712     0.6175
 1059   21.160   3540.79     1.1199     0.0318     0.9332     0.2116     1.5134     2.8456   338.5600     1.1749     0.6174
 1060   21.180   3541.84     1.1079     0.0314     0.9374     0.2118     1.5024     2.8261   338.8800     1.1635     0.6253
 1061   21.200   3542.89     1.1154     0.0316     0.9377     0.2120     1.5079     2.8457   339.2000     1.1687     0.6183
 1062   21.220   3543.84     1.1024     0.0310     0.9478     0.2122     1.4979     2.8070   339.5200     1.1584     0.6297
 1063   21.240   3544.81     1.1008     0.0309     0.9516     0.2124     1.4986     2.8160   339.8400     1.1588     0.6342
 1064   21.260   3545.80     1.0900     0.0315     0.9618     0.2126     1.4933     2.8808   340.1600     1.1531     0.6484
 1065   21.280   3546.79     1.1019     0.0311     0.9592     0.2128     1.5060     2.8384   340.4800     1.1655     0.6429
 1066   21.300   3547.72     1.0923     0.0308     0.9664     0.2130     1.4961     2.8165   340.8000     1.1553     0.6478
 1067   21.320   3548.75     1.0843     0.0311     0.9640     0.2132     1.4897     2.8614   341.1200     1.1485     0.6548
 1068   21.340   3549.78     1.0965     0.0318     0.9653     0.2134     1.5002     2.9198   341.4400     1.1587     0.6454
 1069   21.360   3550.75     1.0901     0.0316     0.9603     0.2136     1.4936     2.8942   341.7600     1.1518     0.6487
 1070   21.380   3551.73     1.0791     0.0313     0.9679     0.2138     1.4850     2.8932   342.0800     1.1429     0.6584
 1071   21.400   3552.71     1.0807     0.0313     0.9739     0.2140     1.4892     2.8964   342.4000     1.1468     0.6615
 1072   21.420   3553.72     1.0868     0.0315     0.9786     0.2142     1.4968     2.9098   342.7200     1.1541     0.6604
 1073   21.440   3554.61     1.1047     0.0322     0.9769     0.2144     1.5159     2.9405   343.0400     1.1728     0.6520
 1074   21.460   3555.63     1.1131     0.0316     0.9730     0.2146     1.5235     2.8398   343.3600     1.1802     0.6461
 1075   21.480   3556.61     1.1133     0.0317     0.9568     0.2148     1.5157     2.8491   343.6800     1.1720     0.6341
 1076   21.500   3557.69     1.1177     0.0315     0.9701     0.2150     1.5229     2.8190   344.0000     1.1789     0.6359
 1077   21.520   3558.68     1.1156     0.0315     0.9625     0.2152     1.5255     2.8142   344.3200     1.1812     0.6440
 1078   21.540   3559.73     1.1089     0.0315     0.9673     0.2154     1.5116     2.8373   344.6400     1.1669     0.6369
 1079   21.560   3560.71     1.1234     0.0313     0.9658     0.2156     1.5288     2.8029   344.9600     1.1839     0.6333
 1080   21.580   3561.67     1.1260     0.0323     0.9693     0.2158     1.5330     2.8656   345.2800     1.1877     0.6342
 1081   21.600   3562.70     1.1296     0.0318     0.9759     0.2160     1.5399     2.8206   345.6000     1.1943     0.6370
 1082   21.620   3563.67     1.1392     0.0318     0.9680     0.2162     1.5460     2.7998   345.9200     1.2001     0.6270
 1083   21.640   3564.66     1.1440     0.0317     0.9558     0.2164     1.5482     2.7761   346.2400     1.2019     0.6205
 1084   21.660   3565.54     1.1480     0.0309     0.9615     0.2166     1.5500     2.6840   346.5600     1.2034     0.6154
 1085   21.680   3566.54     1.1394     0.0299     0.9864     0.2168     1.5438     2.6127   346.8800     1.1970     0.6234
 1086   21.700   3567.51     1.1358                0.9942     0.2170     1.5524              347.2000     1.2052     0.6429
 1087   21.720   3568.63     1.1347                0.9939     0.2172     1.5523              347.5200     1.2048     0.6449
 1088   21.740   3569.59     1.1503                0.9933     0.2174     1.5669              347.8400     1.2191     0.6353
 1089   21.760   3570.60     1.1439                0.9805     0.2176     1.5571              348.1600     1.2090     0.6338
 1090   21.780   3571.59     1.1410                0.9855     0.2178     1.5533              348.4800     1.2048     0.6339
 1091   21.795   3572.31     1.1349                           0.2179     1.5549              348.7150     1.2062     0.6484
 
 
