

 Program UNIPLOT                         version 05.36.02
 _______________
 (c) Fugro Netherlands Marine, Nootdorp, The Netherlands


 ASCII representation of data plotted on a graph.

 This ASCII file presents data interpolated to values per fixed depth interval.
 The data are corrected for the depth-offset differences between the various 
 transducers in the penetrometer.

 The records at the start of penetration may include no values or anomalous
 values where a depth offset implies incomplete penetration of a particular
 sensor into the ground.

 The records at the end of penetration may include no values for data channels
 where the transducer did not reach this depth.

 The reference level for test values is (1) the ground surface for onshore tests and (2) the seafloor for nearshore and offshore tests.

 UNICAS data file          : CPT-1027.000                            
 Output using command file : PlotASCII.cmd

 ASCII file created at : date          :26-Apr-2022
                         time          :10:11:38
 Project number                        :20024805                                                                                            
 Date of testing                       :22-Apr-2022                                                                                         
 Location                              :Hong Kong Offshore Wind Farm Project                                                                
 Test name                             :CPT-1027
 Penetrometer                          :F7.5CKE2HAW2/B/3342
 Serial no                             :1701-3342

 Table description:
 Column ID                             :Parameter name
 ___________________________________________________________________________________
 Rec                                   :Record ID, Record ID [-]
 Depth                                 :Depth, Depth [m]
 Time                                  :Time, Time [s]
 Cone                                  :Cone Resistance, Cone Resistance [MPa]
 Friction                              :Sleeve Friction, Sleeve Friction [MPa]
 Pore 2                                :Porewater Pressure, Porewater Pressure at Shoulder [MPa]
 HydroPress                            :Hydrostatic Pressure, Hydrostatic Pressure [MPa]
 qt                                    :Total Cone Resistance, Total Cone Resistance [MPa]
 Fric_ratio                            :Friction Ratio, Friction Ratio [%]
 SigmaVert                             :Vertical stress, Vertical stress [kPa] as specified in ground model
 Qnet                                  :Net Cone Resistance, Net Cone Resistance [MPa], unit weight as specified in ground model
 Bq                                    :Porewater Pressure Ratio, Porewater Pressure Ratio [-], unit weight as specified in ground model


 Data table:
  Rec    Depth      Time       Cone   Friction     Pore 2 HydroPress         qt Fric_ratio  SigmaVert       Qnet         Bq
   No        m         s        MPa        MPa        MPa        MPa        MPa          %        kPa        MPa          -
    1    0.000   1571.19     0.0000                           0.0000     0.0000                0.0000     0.0000           
    2    0.020   1592.37     0.0017                           0.0002     0.0017                0.3200     0.0014           
    3    0.040   1613.55     0.0034                           0.0004     0.0034                0.6400     0.0028           
    4    0.060   1626.61     0.0043     0.0002     0.0003     0.0006     0.0043     4.9761     0.9600     0.0033    -0.1530
    5    0.080   1627.59     0.0041     0.0002     0.0006     0.0008     0.0043    12.7369     1.2800     0.0030    -0.3147
    6    0.100   1628.56     0.0051     0.0005     0.0009     0.0010     0.0054     8.5598     1.6000     0.0038    -0.0627
    7    0.120   1629.48     0.0057     0.0005     0.0011     0.0012     0.0062     7.9097     1.9200     0.0043    -0.0222
    8    0.140   1630.45     0.0082     0.0006     0.0011     0.0014     0.0086     7.2596     2.2400     0.0064    -0.0723
    9    0.160   1631.39     0.0111     0.0009     0.0007     0.0016     0.0115     8.0106     2.5600     0.0090    -0.0802
   10    0.180   1632.36     0.0128     0.0010     0.0001     0.0018     0.0129     7.9769     2.8800     0.0100    -0.1550
   11    0.200   1633.80     0.0103     0.0014    -0.0003     0.0020     0.0102    13.3507     3.2000     0.0070    -0.3221
   12    0.220   1637.70     0.0113     0.0011    -0.0004     0.0022     0.0111    11.3224     3.5200     0.0076    -0.3377
   13    0.240   1641.60     0.0122     0.0013    -0.0006     0.0024     0.0120    12.6056     3.8400     0.0082    -0.3532
   14    0.260   1644.90     0.0124     0.0014     0.0001     0.0026     0.0123    11.7086     4.1600     0.0081    -0.3516
   15    0.280   1645.84     0.0130     0.0015     0.0011     0.0028     0.0130    11.3466     4.4800     0.0086    -0.3018
   16    0.300   1646.83     0.0129     0.0013     0.0017     0.0030     0.0136    11.1653     4.8000     0.0088    -0.1585
   17    0.320   1647.79     0.0135     0.0013     0.0027     0.0032     0.0146    10.7120     5.1200     0.0095    -0.0464
   18    0.340   1648.70     0.0122     0.0014     0.0028     0.0034     0.0134    10.6864     5.4400     0.0080    -0.0600
   19    0.360   1649.69     0.0128     0.0016     0.0022     0.0036     0.0138    10.2407     5.7600     0.0080    -0.1463
   20    0.380   1650.64     0.0105     0.0014     0.0021     0.0038     0.0113    10.8478     6.0800     0.0052    -0.3708
   21    0.400   1651.57     0.0113     0.0015     0.0032     0.0040     0.0125    13.0413     6.4000     0.0061    -0.1919
   22    0.420   1652.52     0.0126     0.0016     0.0035     0.0042     0.0140    11.7136     6.7200     0.0073    -0.1096
   23    0.440   1653.47     0.0129     0.0015     0.0034     0.0044     0.0143    11.1815     7.0400     0.0072    -0.1544
   24    0.460   1654.40     0.0120     0.0019     0.0041     0.0046     0.0137    15.8041     7.3600     0.0063    -0.0893
   25    0.480   1655.37     0.0122     0.0018     0.0045     0.0048     0.0142    14.0805     7.6800     0.0065    -0.0199
   26    0.500   1656.32     0.0093     0.0017     0.0039     0.0050     0.0111    16.0357     8.0000     0.0031    -0.3086
   27    0.520   1657.27     0.0082     0.0016     0.0043     0.0052     0.0098    20.0659     8.3200     0.0015    -1.4448
   28    0.540   1658.23     0.0107     0.0016     0.0059     0.0054     0.0131    15.1599     8.6400     0.0045     0.0641
   29    0.560   1659.19     0.0087     0.0017     0.0068     0.0056     0.0115    16.9465     8.9600     0.0025     0.4449
   30    0.580   1660.12     0.0104     0.0018     0.0076     0.0058     0.0136    23.8821     9.2800     0.0043     0.5421
   31    0.600   1661.07     0.0078     0.0014     0.0074     0.0060     0.0109    18.7841     9.6000     0.0013     1.1898
   32    0.620   1662.03     0.0087     0.0016     0.0074     0.0062     0.0119    17.8392     9.9200     0.0019     0.7121
   33    0.640   1663.01     0.0093     0.0016     0.0071     0.0064     0.0122    21.4610    10.2400     0.0020     0.8002
   34    0.660   1663.96     0.0075     0.0016     0.0073     0.0066     0.0105    19.7705    10.5600     0.0000    -0.0350
   35    0.680   1664.90     0.0072     0.0017     0.0076     0.0068     0.0103    22.2893    10.8800    -0.0006     2.2340
   36    0.700   1665.83     0.0083     0.0017     0.0091     0.0070     0.0118    24.5193    11.2000     0.0006    -1.0047
   37    0.720   1666.78     0.0101     0.0017     0.0091     0.0072     0.0139    16.9184    11.5200     0.0024     0.8390
   38    0.740   1667.79     0.0117     0.0018     0.0103     0.0074     0.0157    15.9588    11.8400     0.0038     0.6116
   39    0.760   1668.74     0.0111     0.0019     0.0100     0.0076     0.0153    17.9668    12.1600     0.0032     0.7806
   40    0.780   1669.69     0.0094     0.0019     0.0103     0.0078     0.0137    19.6020    12.4800     0.0013     0.8996
   41    0.800   1670.61     0.0096     0.0019     0.0108     0.0080     0.0142    22.9024    12.8000     0.0014     1.4361
   42    0.820   1671.56     0.0086     0.0020     0.0103     0.0082     0.0129    28.6414    13.1200    -0.0002           
   43    0.840   1672.52     0.0092     0.0019     0.0110     0.0084     0.0137    22.3689    13.4400     0.0003     0.9882
   44    0.860   1673.44     0.0088     0.0019     0.0109     0.0086     0.0134    20.9897    13.7600    -0.0004     8.3843
   45    0.880   1674.44     0.0074     0.0021     0.0101     0.0088     0.0118    25.6100    14.0800    -0.0023    -1.0834
   46    0.900   1675.38     0.0088     0.0022     0.0121     0.0090     0.0137    25.8680    14.4000    -0.0007     2.3147
   47    0.920   1676.32     0.0082     0.0019     0.0114     0.0092     0.0130    24.9535    14.7200    -0.0017    -1.3486
   48    0.940   1677.27     0.0087     0.0021     0.0115     0.0094     0.0134    24.5185    15.0400    -0.0016    -1.1146
   49    0.960   1678.19     0.0062     0.0021     0.0131     0.0096     0.0115    27.3947    15.3600    -0.0039    -0.8465
   50    0.980   1679.19     0.0058     0.0020     0.0137     0.0098     0.0116    26.7937    15.6800    -0.0041    -0.9541
   51    1.000   1680.13     0.0075     0.0018     0.0143     0.0100     0.0134    24.5285    16.0000    -0.0026    -1.4954
   52    1.020   1681.07     0.0077     0.0016     0.0154     0.0102     0.0142    24.1886    16.3200    -0.0022    -2.5084
   53    1.040   1682.01     0.0092     0.0018     0.0154     0.0104     0.0157    24.4626    16.6400    -0.0010   -11.3967
   54    1.060   1682.97     0.0098     0.0020     0.0159     0.0106     0.0163    20.1978    16.9600    -0.0006    -7.6640
   55    1.080   1683.93     0.0105     0.0018     0.0165     0.0108     0.0173    16.7481    17.2800     0.0001    -1.3019
   56    1.100   1684.90     0.0102     0.0020     0.0163     0.0110     0.0170    17.5104    17.6000    -0.0006     1.2135
   57    1.120   1685.83     0.0105     0.0019     0.0151     0.0112     0.0172    19.6570    17.9200    -0.0007           
   58    1.140   1686.82     0.0094     0.0021     0.0154     0.0114     0.0161    21.2248    18.2400    -0.0021    -3.9498
   59    1.160   1687.75     0.0104     0.0021     0.0151     0.0116     0.0170    19.5152    18.5600    -0.0016    -3.5369
   60    1.180   1688.70     0.0154     0.0023     0.0157     0.0118     0.0220    18.0494    18.8800     0.0031     1.2338
   61    1.200   1689.70     0.0179     0.0022     0.0158     0.0120     0.0248    12.8451    19.2000     0.0056     0.7941
   62    1.220   1690.64     0.0197     0.0023     0.0132     0.0122     0.0254    12.7139    19.5200     0.0059     0.2353
   63    1.240   1691.60     0.0193     0.0021     0.0145     0.0124     0.0250    12.3164    19.8400     0.0051     0.2383
   64    1.260   1692.52     0.0175     0.0021     0.0161     0.0126     0.0241    11.9738    20.1600     0.0039     0.7611
   65    1.280   1693.47     0.0159     0.0022     0.0178     0.0128     0.0230    13.0486    20.4800     0.0026     1.7808
   66    1.300   1694.44     0.0185     0.0017     0.0194     0.0130     0.0265     8.8591    20.8000     0.0057     1.1696
   67    1.320   1695.39     0.0183     0.0021     0.0185     0.0132     0.0263    12.1223    21.1200     0.0052     1.1374
   68    1.340   1696.33     0.0205     0.0021     0.0207     0.0134     0.0288    10.6724    21.4400     0.0074     0.8695
   69    1.360   1697.30     0.0210     0.0022     0.0220     0.0136     0.0301    10.6807    21.7600     0.0084     0.9868
   70    1.380   1698.25     0.0222     0.0024     0.0236     0.0138     0.0319    10.7498    22.0800     0.0098     0.9435
   71    1.400   1699.20     0.0283     0.0021     0.0246     0.0140     0.0388     8.2410    22.4000     0.0164     0.6751
   72    1.420   1700.14     0.0298     0.0021     0.0255     0.0142     0.0405     6.1630    22.7200     0.0177     0.6402
   73    1.440   1701.09     0.0363     0.0027     0.0246     0.0144     0.0468     7.9323    23.0400     0.0238     0.4437
   74    1.460   1702.00     0.0385     0.0025     0.0225     0.0146     0.0484     7.1282    23.3600     0.0250     0.3636
   75    1.480   1703.00     0.0367     0.0025     0.0199     0.0148     0.0454     6.3311    23.6800     0.0217     0.2693
   76    1.500   1703.91     0.0379     0.0029     0.0161     0.0150     0.0454     7.3189    24.0000     0.0214     0.1286
   77    1.520   1704.87     0.0355     0.0026     0.0158     0.0152     0.0416     7.1060    24.3200     0.0173    -0.0438
   78    1.540   1705.84     0.0305     0.0026     0.0192     0.0154     0.0384     8.0645    24.6400     0.0137     0.2393
   79    1.560   1706.80     0.0305     0.0027     0.0199     0.0156     0.0388     8.9543    24.9600     0.0138     0.2879
   80    1.580   1707.74     0.0325     0.0027     0.0217     0.0158     0.0414     8.7156    25.2800     0.0162     0.3399
   81    1.600   1708.70     0.0310     0.0026     0.0214     0.0160     0.0400     8.2311    25.6000     0.0144     0.3684
   82    1.620   1709.67     0.0322     0.0024     0.0220     0.0162     0.0406     7.3264    25.9200     0.0147     0.2591
   83    1.640   1710.65     0.0335     0.0025     0.0263     0.0164     0.0439     7.5390    26.2400     0.0177     0.4837
   84    1.660   1711.56     0.0297     0.0024     0.0250     0.0166     0.0405     7.7010    26.5600     0.0139     0.6518
   85    1.680   1712.53     0.0284     0.0023     0.0275     0.0168     0.0394     7.7165    26.8800     0.0125     0.7532
   86    1.700   1713.47     0.0319     0.0024     0.0312     0.0170     0.0444     7.1339    27.2000     0.0172     0.7571
   87    1.720   1714.44     0.0287     0.0024     0.0342     0.0172     0.0427     8.3651    27.5200     0.0152     1.0677
   88    1.740   1715.38     0.0236     0.0021     0.0345     0.0174     0.0382     8.1814    27.8400     0.0103     1.7463
   89    1.760   1716.36     0.0219     0.0023     0.0307     0.0176     0.0350    10.7370    28.1600     0.0069     1.9868
   90    1.780   1717.31     0.0198     0.0021     0.0316     0.0178     0.0328     9.8778    28.4800     0.0043     3.4495
   91    1.800   1718.23     0.0159     0.0021     0.0348     0.0180     0.0301    12.3845    28.8000     0.0013    12.5481
   92    1.820   1719.22     0.0173     0.0022     0.0376     0.0182     0.0329    13.7876    29.1200     0.0038     5.0130
   93    1.840   1720.13     0.0224     0.0019     0.0394     0.0184     0.0386     9.9085    29.4400     0.0092     2.2665
   94    1.860   1721.11     0.0281     0.0020     0.0402     0.0186     0.0448     7.6185    29.7600     0.0150     1.4145
   95    1.880   1722.04     0.0330     0.0025     0.0422     0.0188     0.0505     9.1062    30.0800     0.0204     1.1429
   96    1.900   1723.02     0.0430     0.0025     0.0417     0.0190     0.0606     7.7303    30.4000     0.0302     0.7605
   97    1.920   1723.94     0.0467     0.0024     0.0404     0.0192     0.0641     6.3543    30.7200     0.0333     0.6673
   98    1.940   1724.91     0.0464     0.0023     0.0384     0.0194     0.0626     4.9520    31.0400     0.0316     0.6066
   99    1.960   1725.86     0.0471     0.0024     0.0409     0.0196     0.0638     5.0520    31.3600     0.0325     0.6226
  100    1.980   1726.81     0.0438     0.0020     0.0440     0.0198     0.0620     4.5241    31.6800     0.0303     0.7760
  101    2.000   1737.19     0.0482     0.0020     0.0443     0.0200     0.0668     4.7145    32.0000     0.0348     0.7309
  102    2.020   1753.22     0.0558     0.0020     0.0446     0.0202     0.0745     4.7142    32.3200     0.0422     0.6136
  103    2.040   1769.24     0.0635     0.0018     0.0454     0.0204     0.0823     4.1506    32.6400     0.0497     0.4964
  104    2.060   1772.09     0.0694     0.0018     0.0428     0.0206     0.0877     2.5848    32.9600     0.0548     0.4209
  105    2.080   1773.00     0.0698     0.0020     0.0395     0.0208     0.0868     3.0259    33.2800     0.0535     0.3688
  106    2.100   1773.95     0.0692     0.0021     0.0414     0.0210     0.0861     3.0209    33.6000     0.0525     0.3663
  107    2.120   1774.90     0.0611     0.0022     0.0444     0.0212     0.0794     3.5718    33.9200     0.0455     0.4934
  108    2.140   1775.86     0.0604     0.0021     0.0474     0.0214     0.0802     3.4567    34.2400     0.0459     0.5574
  109    2.160   1776.81     0.0608     0.0020     0.0492     0.0216     0.0813     3.2381    34.5600     0.0468     0.5844
  110    2.180   1777.77     0.0645     0.0020     0.0474     0.0218     0.0844     3.2708    34.8800     0.0496     0.5209
  111    2.200   1778.74     0.0800     0.0022     0.0484     0.0220     0.1000     3.0838    35.2000     0.0648     0.3946
  112    2.220   1779.69     0.0933     0.0021     0.0506     0.0222     0.1146     2.3252    35.5200     0.0790     0.3594
  113    2.240   1780.63     0.0930     0.0026     0.0494     0.0224     0.1144     2.7913    35.8400     0.0785     0.3633
  114    2.260   1781.56     0.0946     0.0023     0.0464     0.0226     0.1145     2.4881    36.1600     0.0784     0.3183
  115    2.280   1782.53     0.0895     0.0032     0.0446     0.0228     0.1084     3.5189    36.4800     0.0720     0.3090
  116    2.300   1783.44     0.0860     0.0027     0.0412     0.0230     0.1039     3.0558    36.8000     0.0671     0.2935
  117    2.320   1784.42     0.0874     0.0030     0.0383     0.0232     0.1038     3.4654    37.1200     0.0667     0.2376
  118    2.340   1785.37     0.0862     0.0032     0.0342     0.0234     0.1010     3.7143    37.4400     0.0636     0.1852
  119    2.360   1786.34     0.0895     0.0031     0.0351     0.0236     0.1035     3.5514    37.7600     0.0657     0.1449
  120    2.380   1787.27     0.0854     0.0028     0.0353     0.0238     0.1012     3.1409    38.0800     0.0631     0.2180
  121    2.400   1788.20     0.0823     0.0032     0.0243     0.0240     0.0934     3.8809    38.4000     0.0550     0.0467
  122    2.420   1789.18     0.0836     0.0031     0.0224     0.0242     0.0932     3.7899    38.7200     0.0544    -0.0250
  123    2.440   1790.11     0.0897     0.0036     0.0271     0.0244     0.0998     4.1706    39.0400     0.0608    -0.0048
  124    2.460   1791.03     0.0957     0.0032     0.0351     0.0246     0.1096     3.4659    39.3600     0.0702     0.1204
  125    2.480   1792.00     0.0976     0.0035     0.0395     0.0248     0.1136     3.5814    39.6800     0.0739     0.1809
  126    2.500   1792.93     0.0970     0.0037     0.0377     0.0250     0.1135     3.8608    40.0000     0.0735     0.1935
  127    2.520   1793.90     0.1112     0.0039     0.0400     0.0252     0.1271     3.7438    40.3200     0.0868     0.1450
  128    2.540   1794.84     0.1178     0.0040     0.0420     0.0254     0.1356     3.4148    40.6400     0.0950     0.1793
  129    2.560   1795.79     0.1158     0.0043     0.0388     0.0256     0.1329     3.7017    40.9600     0.0919     0.1645
  130    2.580   1796.73     0.1223     0.0042     0.0384     0.0258     0.1396     3.5106    41.2800     0.0983     0.1561
  131    2.600   1797.70     0.1217     0.0042     0.0420     0.0260     0.1383     3.4687    41.6000     0.0967     0.1410
  132    2.620   1798.64     0.1152     0.0042     0.0490     0.0262     0.1352     3.6082    41.9200     0.0933     0.2292
  133    2.640   1799.57     0.1170     0.0044     0.0490     0.0264     0.1379     3.7187    42.2400     0.0957     0.2459
  134    2.660   1800.51     0.1152     0.0037     0.0532     0.0266     0.1365     3.1614    42.5600     0.0940     0.2562
  135    2.680   1801.51     0.1150     0.0041     0.0589     0.0268     0.1391     3.6567    42.8800     0.0962     0.3169
  136    2.700   1802.44     0.1117     0.0037     0.0627     0.0270     0.1376     3.3150    43.2000     0.0944     0.3662
  137    2.720   1803.41     0.1137     0.0038     0.0653     0.0272     0.1408     3.3050    43.5200     0.0973     0.3832
  138    2.740   1804.35     0.1156     0.0037     0.0676     0.0274     0.1436     3.2258    43.8400     0.0998     0.3952
  139    2.760   1805.28     0.1174     0.0039     0.0684     0.0276     0.1464     3.4262    44.1600     0.1022     0.4049
  140    2.780   1806.21     0.1199     0.0036     0.0696     0.0278     0.1494     3.0078    44.4800     0.1049     0.4050
  141    2.800   1807.18     0.1191     0.0037     0.0702     0.0280     0.1482     3.1613    44.8000     0.1034     0.3999
  142    2.820   1808.11     0.1234     0.0038     0.0705     0.0282     0.1532     3.0172    45.1200     0.1081     0.3967
  143    2.840   1809.05     0.1213     0.0038     0.0703     0.0284     0.1507     3.1095    45.4400     0.1052     0.3952
  144    2.860   1810.02     0.1027     0.0038     0.0648     0.0286     0.1311     3.4478    45.7600     0.0854     0.4585
  145    2.880   1810.97     0.0889     0.0041     0.0569     0.0288     0.1139     4.5041    46.0800     0.0678     0.4525
  146    2.900   1811.89     0.0937     0.0038     0.0527     0.0290     0.1160     4.1082    46.4000     0.0696     0.3469
  147    2.920   1812.84     0.0960     0.0038     0.0568     0.0292     0.1190     3.9789    46.7200     0.0723     0.3552
  148    2.940   1813.79     0.1022     0.0033     0.0636     0.0294     0.1277     3.3739    47.0400     0.0807     0.3889
  149    2.960   1814.72     0.1142     0.0031     0.0699     0.0296     0.1425     2.7611    47.3600     0.0952     0.3983
  150    2.980   1815.69     0.1138     0.0032     0.0742     0.0298     0.1447     2.7711    47.6800     0.0970     0.4501
  151    3.000   1816.61     0.1157     0.0034     0.0734     0.0300     0.1470     2.9350    48.0000     0.0990     0.4497
  152    3.020   1817.60     0.1127     0.0032     0.0674     0.0302     0.1417     2.7745    48.3200     0.0933     0.4154
  153    3.040   1818.51     0.1050     0.0031     0.0587     0.0304     0.1312     2.8918    48.6400     0.0825     0.3871
  154    3.060   1819.47     0.1024     0.0033     0.0490     0.0306     0.1239     3.1201    48.9600     0.0749     0.2723
  155    3.080   1820.42     0.0929     0.0029     0.0529     0.0308     0.1144     3.0305    49.2800     0.0651     0.3135
  156    3.100   1821.36     0.0867     0.0028     0.0559     0.0310     0.1100     3.0899    49.6000     0.0604     0.4042
  157    3.120   1822.31     0.0851     0.0025     0.0586     0.0312     0.1094     2.9465    49.9200     0.0594     0.4472
  158    3.140   1823.25     0.0828     0.0026     0.0587     0.0314     0.1075     3.0423    50.2400     0.0572     0.4783
  159    3.160   1824.22     0.0865     0.0023     0.0557     0.0316     0.1107     2.6592    50.5600     0.0602     0.4330
  160    3.180   1825.16     0.0882     0.0022     0.0522     0.0318     0.1104     2.6174    50.8800     0.0595     0.3536
  161    3.200   1826.13     0.0990     0.0027     0.0433     0.0320     0.1190     2.8381    51.2000     0.0678     0.2292
  162    3.220   1827.07     0.1001     0.0026     0.0346     0.0322     0.1157     2.7291    51.5200     0.0642     0.0769
  163    3.240   1827.99     0.1016     0.0031     0.0282     0.0324     0.1144     3.1369    51.8400     0.0626    -0.0270
  164    3.260   1828.98     0.1092     0.0031     0.0184     0.0326     0.1179     2.9885    52.1600     0.0658    -0.1769
  165    3.280   1829.91     0.1194     0.0033     0.0193     0.0328     0.1273     2.8688    52.4800     0.0748    -0.1897
  166    3.300   1830.85     0.1345     0.0034     0.0172     0.0330     0.1424     2.6363    52.8000     0.0896    -0.1576
  167    3.320   1831.78     0.1460     0.0040     0.0199     0.0332     0.1544     2.8587    53.1200     0.1013    -0.1304
  168    3.340   1832.79     0.1534     0.0044     0.0267     0.0334     0.1630     2.8634    53.4400     0.1095    -0.0976
  169    3.360   1833.68     0.1559     0.0047     0.0297     0.0336     0.1681     3.0402    53.7600     0.1143    -0.0404
  170    3.380   1834.68     0.1636     0.0051     0.0339     0.0338     0.1783     3.1648    54.0800     0.1242     0.0088
  171    3.400   1835.59     0.1691     0.0055     0.0348     0.0340     0.1838     3.2925    54.4000     0.1294     0.0069
  172    3.420   1836.53     0.1723     0.0057     0.0352     0.0342     0.1869     3.2972    54.7200     0.1321     0.0026
  173    3.440   1837.49     0.1762     0.0060     0.0422     0.0344     0.1929     3.4145    55.0400     0.1378     0.0384
  174    3.460   1838.45     0.1798     0.0058     0.0431     0.0346     0.1978     3.2798    55.3600     0.1424     0.0576
  175    3.480   1839.41     0.1777     0.0061     0.0495     0.0348     0.1980     3.4139    55.6800     0.1423     0.0940
  176    3.500   1840.33     0.1795     0.0062     0.0434     0.0350     0.1982     3.4422    56.0000     0.1422     0.0656
  177    3.520   1841.29     0.1768     0.0063     0.0418     0.0352     0.1946     3.5574    56.3200     0.1382     0.0516
  178    3.540   1842.25     0.1731     0.0061     0.0451     0.0354     0.1913     3.4510    56.6400     0.1347     0.0581
  179    3.560   1843.22     0.1707     0.0059     0.0533     0.0356     0.1919     3.4847    56.9600     0.1349     0.1101
  180    3.580   1844.17     0.1739     0.0052     0.0616     0.0358     0.1986     2.9268    57.2800     0.1413     0.1636
  181    3.600   1845.08     0.1759     0.0051     0.0668     0.0360     0.2033     2.9358    57.6000     0.1457     0.2013
  182    3.620   1846.05     0.1734     0.0047     0.0698     0.0362     0.2023     2.7614    57.9200     0.1444     0.2265
  183    3.640   1846.99     0.1775     0.0044     0.0729     0.0364     0.2076     2.5100    58.2400     0.1494     0.2367
  184    3.660   1847.96     0.1799     0.0048     0.0761     0.0366     0.2115     2.6954    58.5600     0.1530     0.2523
  185    3.680   1848.91     0.1895     0.0056     0.0702     0.0368     0.2206     3.0618    58.8800     0.1617     0.2301
  186    3.700   1849.87     0.1983     0.0058     0.0501     0.0370     0.2219     2.9390    59.2000     0.1627     0.1179
  187    3.720   1850.80     0.2021     0.0059     0.0401     0.0372     0.2194     2.9358    59.5200     0.1599     0.0253
  188    3.740   1851.74     0.2013     0.0067     0.0323     0.0374     0.2162     3.3386    59.8400     0.1564    -0.0121
  189    3.760   1852.71     0.2014     0.0073     0.0284     0.0376     0.2131     3.5953    60.1600     0.1530    -0.0629
  190    3.780   1853.64     0.1967     0.0075     0.0315     0.0378     0.2093     3.7811    60.4800     0.1488    -0.0528
  191    3.800   1854.57     0.1940     0.0074     0.0355     0.0380     0.2084     3.8272    60.8000     0.1476    -0.0246
  192    3.820   1855.54     0.1942     0.0074     0.0416     0.0382     0.2109     3.9088    61.1200     0.1498     0.0106
  193    3.840   1856.46     0.1887     0.0074     0.0398     0.0384     0.2058     3.9905    61.4400     0.1444     0.0169
  194    3.860   1857.43     0.1848     0.0071     0.0389     0.0386     0.2011     3.8077    61.7600     0.1394     0.0029
  195    3.880   1858.34     0.1820     0.0064     0.0438     0.0388     0.1994     3.5006    62.0800     0.1373     0.0189
  196    3.900   1860.68     0.1815     0.0061     0.0451     0.0390     0.2006     3.3349    62.4000     0.1382     0.0467
  197    3.920   1875.96     0.1818     0.0056     0.0441     0.0392     0.2005     3.1018    62.7200     0.1378     0.0380
  198    3.940   1891.23     0.1821     0.0052     0.0431     0.0394     0.2004     2.8612    63.0400     0.1374     0.0293
  199    3.960   1902.94     0.1802     0.0049     0.0418     0.0396     0.1978     2.7011    63.3600     0.1344     0.0167
  200    3.980   1903.88     0.1735     0.0049     0.0508     0.0398     0.1935     2.7824    63.6800     0.1298     0.0595
  201    4.000   1904.84     0.1725     0.0048     0.0588     0.0400     0.1961     2.7792    64.0000     0.1321     0.1222
  202    4.020   1905.79     0.1743     0.0049     0.0639     0.0402     0.2006     2.8440    64.3200     0.1363     0.1653
  203    4.040   1906.74     0.1754     0.0045     0.0690     0.0404     0.2035     2.6059    64.6400     0.1388     0.1904
  204    4.060   1907.69     0.1709     0.0048     0.0739     0.0406     0.2014     2.7735    64.9600     0.1364     0.2337
  205    4.080   1908.62     0.1688     0.0045     0.0768     0.0408     0.2006     2.6175    65.2800     0.1353     0.2571
  206    4.100   1909.56     0.1625     0.0042     0.0794     0.0410     0.1955     2.5083    65.6000     0.1299     0.2893
  207    4.120   1910.54     0.1590     0.0041     0.0835     0.0412     0.1934     2.5023    65.9200     0.1275     0.3207
  208    4.140   1911.48     0.1555     0.0039     0.0861     0.0414     0.1914     2.5541    66.2400     0.1251     0.3524
  209    4.160   1912.44     0.1533     0.0036     0.0868     0.0416     0.1896     2.2699    66.5600     0.1231     0.3647
  210    4.180   1913.42     0.1530     0.0033     0.0885     0.0418     0.1900     2.2135    66.8800     0.1231     0.3757
  211    4.200   1914.37     0.1524     0.0036     0.0904     0.0420     0.1899     2.3359    67.2000     0.1227     0.3853
  212    4.220   1915.29     0.1579     0.0038     0.0920     0.0422     0.1962     2.4707    67.5200     0.1287     0.3822
  213    4.240   1916.22     0.1563     0.0039     0.0942     0.0424     0.1956     2.4568    67.8400     0.1278     0.4006
  214    4.260   1917.21     0.1521     0.0041     0.0949     0.0426     0.1919     2.6751    68.1600     0.1237     0.4214
  215    4.280   1918.15     0.1562     0.0045     0.0913     0.0428     0.1948     2.8460    68.4800     0.1264     0.3899
  216    4.300   1919.10     0.1673     0.0044     0.0927     0.0430     0.2060     2.6876    68.8000     0.1372     0.3581
  217    4.320   1920.03     0.1711     0.0048     0.0942     0.0432     0.2105     2.8182    69.1200     0.1414     0.3572
  218    4.340   1920.96     0.1711     0.0046     0.0924     0.0434     0.2104     2.6762    69.4400     0.1410     0.3571
  219    4.360   1921.92     0.1673     0.0045     0.0773     0.0436     0.2026     2.6711    69.7600     0.1328     0.3031
  220    4.380   1922.88     0.1605     0.0041     0.0695     0.0438     0.1898     2.5300    70.0800     0.1198     0.2180
  221    4.400   1923.80     0.1579     0.0040     0.0747     0.0440     0.1881     2.5237    70.4000     0.1177     0.2360
  222    4.420   1924.76     0.1491     0.0037     0.0810     0.0442     0.1824     2.3883    70.7200     0.1117     0.3153
  223    4.440   1925.72     0.1477     0.0037     0.0843     0.0444     0.1830     2.4821    71.0400     0.1119     0.3532
  224    4.460   1926.66     0.1471     0.0032     0.0869     0.0446     0.1829     2.2095    71.3600     0.1116     0.3657
  225    4.480   1927.66     0.1512     0.0033     0.0908     0.0448     0.1888     2.2074    71.6800     0.1172     0.3831
  226    4.500   1928.58     0.1498     0.0035     0.0938     0.0450     0.1887     2.3386    72.0000     0.1167     0.4087
  227    4.520   1929.54     0.1516     0.0037     0.0966     0.0452     0.1919     2.4659    72.3200     0.1195     0.4228
  228    4.540   1930.50     0.1478     0.0035     0.0983     0.0454     0.1889     2.3473    72.6400     0.1162     0.4511
  229    4.560   1931.47     0.1431     0.0033     0.1002     0.0456     0.1849     2.3378    72.9600     0.1120     0.4823
  230    4.580   1932.44     0.1432     0.0035     0.1023     0.0458     0.1858     2.4604    73.2800     0.1125     0.4950
  231    4.600   1933.37     0.1443     0.0034     0.1039     0.0460     0.1878     2.3233    73.6000     0.1142     0.5033
  232    4.620   1934.35     0.1418     0.0033     0.1058     0.0462     0.1860     2.3389    73.9200     0.1121     0.5264
  233    4.640   1935.33     0.1424     0.0032     0.1073     0.0464     0.1873     2.2406    74.2400     0.1131     0.5360
  234    4.660   1936.28     0.1455     0.0030     0.1075     0.0466     0.1905     2.1154    74.5600     0.1159     0.5215
  235    4.680   1937.23     0.1471     0.0029     0.1072     0.0468     0.1925     1.9954    74.8800     0.1176     0.5210
  236    4.700   1938.17     0.1427     0.0032     0.1036     0.0470     0.1869     2.2379    75.2000     0.1117     0.5199
  237    4.720   1939.16     0.1419     0.0032     0.1048     0.0472     0.1855     2.2397    75.5200     0.1100     0.5149
  238    4.740   1940.08     0.1493     0.0032     0.1079     0.0474     0.1942     2.1879    75.8400     0.1184     0.5031
  239    4.760   1941.05     0.1593     0.0033     0.1094     0.0476     0.2052     2.1458    76.1600     0.1290     0.4779
  240    4.780   1942.00     0.1647     0.0033     0.1103     0.0478     0.2108     2.0474    76.4800     0.1344     0.4616
  241    4.800   1942.97     0.1663     0.0037     0.1080     0.0480     0.2126     2.2532    76.8000     0.1358     0.4582
  242    4.820   1943.89     0.1701     0.0038     0.1013     0.0482     0.2130     2.2715    77.1200     0.1359     0.3976
  243    4.840   1944.83     0.1781     0.0036     0.1003     0.0484     0.2197     2.0397    77.4400     0.1423     0.3570
  244    4.860   1945.81     0.1824     0.0034     0.1039     0.0486     0.2252     1.9051    77.7600     0.1475     0.3615
  245    4.880   1946.76     0.1915     0.0044     0.1091     0.0488     0.2369     2.3737    78.0800     0.1588     0.3727
  246    4.900   1947.67     0.2018     0.0042     0.1097     0.0490     0.2488     2.1458    78.4000     0.1704     0.3690
  247    4.920   1948.60     0.2028     0.0049     0.1019     0.0492     0.2464     2.4087    78.7200     0.1677     0.3264
  248    4.940   1949.55     0.2042     0.0049     0.0836     0.0494     0.2423     2.3966    79.0400     0.1633     0.2524
  249    4.960   1950.52     0.2112     0.0059     0.0807     0.0496     0.2444     2.7927    79.3600     0.1650     0.1787
  250    4.980   1951.44     0.2067     0.0063     0.0905     0.0498     0.2432     3.0004    79.6800     0.1635     0.2282
  251    5.000   1952.42     0.2029     0.0065     0.1018     0.0500     0.2440     3.2190    80.0000     0.1640     0.2912
  252    5.020   1953.34     0.2179     0.0066     0.1125     0.0502     0.2635     3.1066    80.3200     0.1832     0.3190
  253    5.040   1954.29     0.2310     0.0063     0.1204     0.0504     0.2804     2.8057    80.6400     0.1998     0.3373
  254    5.060   1955.27     0.2459     0.0062     0.1274     0.0506     0.2984     2.5952    80.9600     0.2174     0.3424
  255    5.080   1956.19     0.2600     0.0058     0.1314     0.0508     0.3146     2.2800    81.2800     0.2333     0.3388
  256    5.100   1957.13     0.2697     0.0058     0.1309     0.0510     0.3258     2.1734    81.6000     0.2442     0.3376
  257    5.120   1958.08     0.2748     0.0057     0.1189     0.0512     0.3272     2.0604    81.9200     0.2453     0.2992
  258    5.140   1959.01     0.2756     0.0058     0.1011     0.0514     0.3206     2.0986    82.2400     0.2384     0.2333
  259    5.160   1959.98     0.2657     0.0058     0.0818     0.0516     0.3030     2.1501    82.5600     0.2205     0.1686
  260    5.180   1960.90     0.2536     0.0057     0.0635     0.0518     0.2825     2.2315    82.8800     0.1996     0.0849
  261    5.200   1961.88     0.2399     0.0055     0.0527     0.0520     0.2639     2.2200    83.2000     0.1807     0.0284
  262    5.220   1962.81     0.2257     0.0057     0.0464     0.0522     0.2457     2.4649    83.5200     0.1621    -0.0286
  263    5.240   1963.75     0.2150     0.0048     0.0555     0.0524     0.2366     2.2054    83.8400     0.1528    -0.0061
  264    5.260   1964.70     0.2077     0.0048     0.0660     0.0526     0.2338     2.2781    84.1600     0.1496     0.0641
  265    5.280   1965.65     0.2027     0.0046     0.0725     0.0528     0.2324     2.3007    84.4800     0.1480     0.1212
  266    5.300   1966.59     0.1944     0.0044     0.0789     0.0530     0.2265     2.2402    84.8000     0.1417     0.1648
  267    5.320   1967.55     0.1934     0.0039     0.0865     0.0532     0.2287     2.0003    85.1200     0.1436     0.2161
  268    5.340   1968.51     0.1974     0.0040     0.0934     0.0534     0.2356     2.0655    85.4400     0.1502     0.2497
  269    5.360   1969.44     0.1987     0.0040     0.0981     0.0536     0.2394     2.0080    85.7600     0.1536     0.2816
  270    5.380   1970.39     0.1966     0.0041     0.0997     0.0538     0.2382     2.0839    86.0800     0.1521     0.2974
  271    5.400   1971.33     0.1921     0.0041     0.1028     0.0540     0.2348     2.1207    86.4000     0.1484     0.3213
  272    5.420   1972.29     0.1944     0.0045     0.1045     0.0542     0.2380     2.3230    86.7200     0.1513     0.3285
  273    5.440   1973.20     0.1920     0.0043     0.1077     0.0544     0.2367     2.2514    87.0400     0.1496     0.3478
  274    5.460   1974.20     0.1916     0.0042     0.1109     0.0546     0.2378     2.1640    87.3600     0.1504     0.3676
  275    5.480   1975.17     0.1892     0.0044     0.1136     0.0548     0.2366     2.3175    87.6800     0.1489     0.3889
  276    5.500   1976.05     0.1861     0.0039     0.1152     0.0550     0.2343     2.0711    88.0000     0.1463     0.4081
  277    5.520   1976.92     0.1842     0.0039     0.1169     0.0552     0.2330     2.0958    88.3200     0.1447     0.4223
  278    5.540   1977.83     0.1899     0.0042     0.1172     0.0554     0.2392     2.2031    88.6400     0.1505     0.4108
  279    5.560   1978.77     0.1907     0.0042     0.1180     0.0556     0.2403     2.2028    88.9600     0.1513     0.4120
  280    5.580   1979.74     0.1881     0.0047     0.1195     0.0558     0.2382     2.4621    89.2800     0.1489     0.4258
  281    5.600   1980.66     0.1851     0.0044     0.1183     0.0560     0.2347     2.3681    89.6000     0.1451     0.4282
  282    5.620   1981.66     0.1833     0.0043     0.1186     0.0562     0.2333     2.3790    89.9200     0.1434     0.4387
  283    5.640   1982.62     0.1805     0.0040     0.1194     0.0564     0.2304     2.2479    90.2400     0.1401     0.4442
  284    5.660   1983.61     0.1777     0.0039     0.1226     0.0566     0.2289     2.1686    90.5600     0.1383     0.4719
  285    5.680   1984.56     0.1823     0.0041     0.1242     0.0568     0.2342     2.2413    90.8800     0.1434     0.4657
  286    5.700   1985.50     0.1856     0.0041     0.1254     0.0570     0.2382     2.2285    91.2000     0.1470     0.4638
  287    5.720   1986.48     0.1860     0.0036     0.1256     0.0572     0.2389     1.9703    91.5200     0.1474     0.4679
  288    5.740   1987.45     0.1872     0.0040     0.1248     0.0574     0.2393     2.1634    91.8400     0.1475     0.4516
  289    5.760   1988.37     0.1879     0.0039     0.1241     0.0576     0.2402     2.0534    92.1600     0.1480     0.4520
  290    5.780   1989.13     0.1886     0.0040     0.1231     0.0578     0.2407     2.1220    92.4800     0.1482     0.4472
  291    5.800   1989.91     0.1869     0.0039     0.1230     0.0580     0.2383     2.0969    92.8000     0.1455     0.4427
  292    5.820   1990.72     0.1843     0.0042     0.1233     0.0582     0.2364     2.2885    93.1200     0.1432     0.4592
  293    5.840   1991.65     0.1891     0.0041     0.1199     0.0584     0.2405     2.2098    93.4400     0.1471     0.4343
  294    5.860   1992.61     0.1906     0.0044     0.1104     0.0586     0.2389     2.3433    93.7600     0.1451     0.3876
  295    5.880   1993.55     0.1945     0.0046     0.1058     0.0588     0.2394     2.3996    94.0800     0.1453     0.3305
  296    5.900   1994.48     0.2007     0.0049     0.0944     0.0590     0.2423     2.5175    94.4000     0.1479     0.2699
  297    5.920   1995.42     0.2004     0.0054     0.0917     0.0592     0.2387     2.7325    94.7200     0.1440     0.2229
  298    5.940   1996.35     0.2004     0.0059     0.0857     0.0594     0.2374     2.9475    95.0400     0.1424     0.2023
  299    5.960   1997.31     0.1971     0.0059     0.0905     0.0596     0.2343     3.0185    95.3600     0.1389     0.2089
  300    5.980   1998.25     0.2019     0.0055     0.0864     0.0598     0.2399     2.7504    95.6800     0.1442     0.2128
  301    6.000   1999.40     0.2099     0.0055     0.0805     0.0600     0.2438     2.6342    96.0000     0.1478     0.1403
  302    6.020   2013.10     0.2077     0.0051     0.0798     0.0602     0.2413     2.4377    96.3200     0.1450     0.1368
  303    6.040   2026.79     0.2055     0.0049     0.0792     0.0604     0.2389     2.3286    96.6400     0.1422     0.1334
  304    6.060   2033.22     0.2027     0.0046     0.0801     0.0606     0.2361     2.2501    96.9600     0.1391     0.1359
  305    6.080   2034.18     0.1947     0.0045     0.0790     0.0608     0.2278     2.2596    97.2800     0.1305     0.1386
  306    6.100   2035.15     0.1835     0.0041     0.0854     0.0610     0.2180     2.1373    97.6000     0.1204     0.1763
  307    6.120   2036.07     0.1801     0.0038     0.0904     0.0612     0.2179     2.1124    97.9200     0.1200     0.2404
  308    6.140   2037.06     0.1732     0.0040     0.0952     0.0614     0.2120     2.2786    98.2400     0.1137     0.2723
  309    6.160   2038.01     0.1807     0.0041     0.1053     0.0616     0.2235     2.2969    98.5600     0.1249     0.3217
  310    6.180   2038.99     0.1875     0.0043     0.1147     0.0618     0.2344     2.3088    98.8800     0.1356     0.3677
  311    6.200   2039.94     0.1979     0.0045     0.1197     0.0620     0.2476     2.3150    99.2000     0.1484     0.3807
  312    6.220   2040.91     0.2083     0.0043     0.1226     0.0622     0.2594     2.1252    99.5200     0.1599     0.3717
  313    6.240   2041.84     0.2124     0.0048     0.1252     0.0624     0.2647     2.2507    99.8400     0.1649     0.3766
  314    6.260   2042.79     0.2175     0.0053     0.1268     0.0626     0.2697     2.4787   100.1600     0.1696     0.3644
  315    6.280   2043.73     0.2180     0.0060     0.1298     0.0628     0.2718     2.7540   100.4800     0.1713     0.3809
  316    6.300   2044.67     0.2240     0.0056     0.1372     0.0630     0.2806     2.5362   100.8000     0.1798     0.3993
  317    6.320   2045.60     0.2336     0.0057     0.1437     0.0632     0.2929     2.4838   101.1200     0.1918     0.4072
  318    6.340   2046.55     0.2347     0.0055     0.1483     0.0634     0.2968     2.3121   101.4400     0.1954     0.4328
  319    6.360   2047.51     0.2319     0.0059     0.1349     0.0636     0.2909     2.5289   101.7600     0.1891     0.4059
  320    6.380   2048.47     0.2594     0.0058     0.1370     0.0638     0.3164     2.3894   102.0800     0.2143     0.3365
  321    6.400   2049.40     0.3003     0.0059     0.1378     0.0640     0.3574     2.0815   102.4000     0.2550     0.2827
  322    6.420   2050.32     0.3195     0.0066     0.1406     0.0642     0.3773     2.0998   102.7200     0.2746     0.2679
  323    6.440   2051.25     0.3172     0.0072     0.1301     0.0644     0.3741     2.2695   103.0400     0.2711     0.2625
  324    6.460   2052.22     0.3179     0.0076     0.1206     0.0646     0.3701     2.3851   103.3600     0.2667     0.2238
  325    6.480   2053.20     0.3208     0.0076     0.1108     0.0648     0.3687     2.4013   103.6800     0.2650     0.1852
  326    6.500   2054.13     0.3226     0.0079     0.1039     0.0650     0.3671     2.4598   104.0000     0.2631     0.1556
  327    6.520   2055.06     0.3114     0.0079     0.0994     0.0652     0.3537     2.4657   104.3200     0.2494     0.1430
  328    6.540   2055.99     0.3017     0.0076     0.0985     0.0654     0.3428     2.4890   104.6400     0.2381     0.1357
  329    6.560   2056.92     0.2950     0.0078     0.1084     0.0656     0.3388     2.6213   104.9600     0.2338     0.1657
  330    6.580   2057.87     0.2974     0.0084     0.1174     0.0658     0.3462     2.8617   105.2800     0.2409     0.2089
  331    6.600   2058.83     0.2925     0.0091     0.1230     0.0660     0.3434     3.0981   105.6000     0.2378     0.2324
  332    6.620   2059.77     0.2895     0.0097     0.1252     0.0662     0.3422     3.3346   105.9200     0.2362     0.2507
  333    6.640   2060.72     0.2789     0.0093     0.1224     0.0664     0.3312     3.2959   106.2400     0.2249     0.2580
  334    6.660   2061.68     0.2624     0.0085     0.1207     0.0666     0.3127     3.1948   106.5600     0.2062     0.2586
  335    6.680   2068.80     0.2497     0.0085     0.1260     0.0668     0.3018     3.3440   106.8800     0.1949     0.2945
  336    6.700   2082.35     0.2429     0.0080     0.1319     0.0670     0.2975     3.1613   107.2000     0.1903     0.3330
  337    6.720   2095.89     0.2362     0.0079     0.1379     0.0672     0.2932     3.1838   107.5200     0.1857     0.3714
  338    6.740   2106.35     0.2308     0.0078     0.1429     0.0674     0.2901     3.2788   107.8400     0.1823     0.4057
  339    6.760   2107.02     0.2285     0.0078     0.1411     0.0676     0.2881     3.3737   108.1600     0.1799     0.4129
  340    6.780   2107.65     0.2262     0.0068     0.1424     0.0678     0.2857     2.9806   108.4800     0.1772     0.4172
  341    6.800   2108.28     0.2403     0.0063     0.1513     0.0680     0.3013     2.7995   108.8000     0.1925     0.4025
  342    6.820   2108.91     0.2266     0.0060     0.1590     0.0682     0.2930     2.6680   109.1200     0.1839     0.4894
  343    6.840   2109.55     0.2261     0.0059     0.1614     0.0684     0.2936     2.5875   109.4400     0.1841     0.5007
  344    6.860   2110.20     0.2257     0.0058     0.1639     0.0686     0.2941     2.5750   109.7600     0.1844     0.5121
  345    6.880   2110.84     0.2279     0.0053     0.1707     0.0688     0.2984     2.3618   110.0800     0.1883     0.5256
  346    6.900   2111.47     0.2295     0.0055     0.1751     0.0690     0.3025     2.4405   110.4000     0.1921     0.5454
  347    6.920   2112.09     0.2328     0.0058     0.1764     0.0692     0.3068     2.5193   110.7200     0.1961     0.5458
  348    6.940   2112.75     0.2304     0.0060     0.1752     0.0694     0.3044     2.5981   111.0400     0.1934     0.5520
  349    6.960   2113.37     0.2235     0.0063     0.1724     0.0696     0.2963     2.7927   111.3600     0.1849     0.5613
  350    6.980   2114.02     0.2188     0.0063     0.1726     0.0698     0.2912     2.8735   111.6800     0.1796     0.5719
  351    7.000   2123.21     0.2161     0.0057     0.1710     0.0700     0.2882     2.6096   112.0000     0.1762     0.5765
  352    7.020   2136.11     0.2136     0.0055     0.1694     0.0702     0.2849     2.5093   112.3200     0.1726     0.5780
  353    7.040   2149.01     0.2110     0.0057     0.1678     0.0704     0.2817     2.6291   112.6400     0.1690     0.5795
  354    7.060   2154.78     0.2092     0.0056     0.1734     0.0706     0.2816     2.6824   112.9600     0.1686     0.6032
  355    7.080   2155.73     0.2161     0.0054     0.1802     0.0708     0.2908     2.5251   113.2800     0.1775     0.6026
  356    7.100   2156.69     0.2219     0.0054     0.1819     0.0710     0.2985     2.4581   113.6000     0.1849     0.6027
  357    7.120   2157.66     0.2288     0.0056     0.1836     0.0712     0.3058     2.4410   113.9200     0.1919     0.5848
  358    7.140   2158.60     0.2351     0.0057     0.1820     0.0714     0.3120     2.4435   114.2400     0.1977     0.5647
  359    7.160   2159.56     0.2338     0.0060     0.1778     0.0716     0.3092     2.5519   114.5600     0.1946     0.5542
  360    7.180   2160.55     0.2349     0.0066     0.1702     0.0718     0.3072     2.8496   114.8800     0.1924     0.5219
  361    7.200   2161.50     0.2409     0.0062     0.1658     0.0720     0.3107     2.5691   115.2000     0.1955     0.4824
  362    7.220   2162.43     0.2419     0.0059     0.1716     0.0722     0.3128     2.4356   115.5200     0.1973     0.4906
  363    7.240   2163.40     0.2448     0.0057     0.1802     0.0724     0.3197     2.3479   115.8400     0.2038     0.5192
  364    7.260   2164.37     0.2512     0.0054     0.1733     0.0726     0.3247     2.1438   116.1600     0.2086     0.4916
  365    7.280   2165.32     0.2596     0.0054     0.1731     0.0728     0.3321     2.0960   116.4800     0.2157     0.4636
  366    7.300   2166.29     0.2663     0.0056     0.1655     0.0730     0.3366     2.1257   116.8000     0.2198     0.4295
  367    7.320   2167.26     0.2707     0.0061     0.1606     0.0732     0.3395     2.2502   117.1200     0.2223     0.4072
  368    7.340   2168.19     0.2760     0.0062     0.1499     0.0734     0.3411     2.2563   117.4400     0.2236     0.3642
  369    7.360   2169.15     0.2722     0.0069     0.1418     0.0736     0.3323     2.5566   117.7600     0.2145     0.3241
  370    7.380   2170.10     0.2703     0.0075     0.1418     0.0738     0.3295     2.8045   118.0800     0.2114     0.3170
  371    7.400   2171.07     0.2575     0.0070     0.1512     0.0740     0.3200     2.6885   118.4000     0.2016     0.3703
  372    7.420   2171.99     0.2528     0.0062     0.1495     0.0742     0.3161     2.4463   118.7200     0.1973     0.3872
  373    7.440   2172.95     0.2493     0.0057     0.1561     0.0744     0.3135     2.2967   119.0400     0.1944     0.4026
  374    7.460   2173.90     0.2405     0.0056     0.1666     0.0746     0.3090     2.3123   119.3600     0.1896     0.4663
  375    7.480   2174.88     0.2346     0.0057     0.1743     0.0748     0.3071     2.3886   119.6800     0.1874     0.5215
  376    7.500   2175.83     0.2376     0.0052     0.1780     0.0750     0.3117     2.2217   120.0000     0.1917     0.5285
  377    7.520   2176.79     0.2372     0.0050     0.1804     0.0752     0.3128     2.0926   120.3200     0.1925     0.5445
  378    7.540   2177.75     0.2364     0.0050     0.1774     0.0754     0.3117     2.1251   120.6400     0.1911     0.5435
  379    7.560   2178.70     0.2295     0.0053     0.1745     0.0756     0.3035     2.2780   120.9600     0.1825     0.5511
  380    7.580   2179.65     0.2297     0.0056     0.1724     0.0758     0.3016     2.4391   121.2800     0.1803     0.5299
  381    7.600   2180.62     0.2360     0.0060     0.1787     0.0760     0.3099     2.5603   121.6000     0.1883     0.5307
  382    7.620   2181.58     0.2429     0.0059     0.1819     0.0762     0.3191     2.4468   121.9200     0.1971     0.5328
  383    7.640   2182.52     0.2413     0.0061     0.1838     0.0764     0.3184     2.5310   122.2400     0.1961     0.5463
  384    7.660   2183.52     0.2410     0.0060     0.1800     0.0766     0.3174     2.4965   122.5600     0.1948     0.5399
  385    7.680   2184.48     0.2383     0.0060     0.1791     0.0768     0.3131     2.4811   122.8800     0.1903     0.5326
  386    7.700   2185.43     0.2328     0.0060     0.1843     0.0770     0.3095     2.5491   123.2000     0.1863     0.5670
  387    7.720   2186.39     0.2336     0.0058     0.1865     0.0772     0.3119     2.5145   123.5200     0.1884     0.5793
  388    7.740   2187.34     0.2383     0.0058     0.1838     0.0774     0.3164     2.4541   123.8400     0.1925     0.5638
  389    7.760   2188.31     0.2367     0.0058     0.1772     0.0776     0.3121     2.4546   124.1600     0.1879     0.5417
  390    7.780   2189.26     0.2369     0.0058     0.1721     0.0778     0.3097     2.4664   124.4800     0.1852     0.5154
  391    7.800   2190.18     0.2318     0.0059     0.1779     0.0780     0.3051     2.5639   124.8000     0.1803     0.5349
  392    7.820   2191.17     0.2279     0.0060     0.1788     0.0782     0.3049     2.5833   125.1200     0.1797     0.5846
  393    7.840   2192.13     0.2246     0.0055     0.1788     0.0784     0.2987     2.4040   125.4400     0.1733     0.5664
  394    7.860   2193.07     0.2167     0.0057     0.1884     0.0786     0.2944     2.5564   125.7600     0.1686     0.6309
  395    7.880   2194.02     0.2218     0.0061     0.1963     0.0788     0.3031     2.7379   126.0800     0.1771     0.6484
  396    7.900   2194.98     0.2301     0.0064     0.2020     0.0790     0.3144     2.8462   126.4000     0.1880     0.6473
  397    7.920   2195.93     0.2380     0.0064     0.2026     0.0792     0.3231     2.7178   126.7200     0.1964     0.6287
  398    7.940   2196.86     0.2472     0.0065     0.1932     0.0794     0.3313     2.6589   127.0400     0.2042     0.5913
  399    7.960   2200.52     0.2495     0.0067     0.1904     0.0796     0.3307     2.6869   127.3600     0.2033     0.5592
  400    7.980   2216.96     0.2499     0.0064     0.1820     0.0798     0.3276     2.5668   127.6800     0.1999     0.5250
  401    8.000   2233.40     0.2503     0.0066     0.1786     0.0800     0.3244     2.6365   128.0000     0.1964     0.4908
  402    8.020   2235.59     0.2530     0.0067     0.1918     0.0802     0.3317     2.6422   128.3200     0.2034     0.5267
  403    8.040   2236.56     0.2506     0.0065     0.1988     0.0804     0.3340     2.6102   128.6400     0.2054     0.5749
  404    8.060   2237.51     0.2558     0.0065     0.1998     0.0806     0.3393     2.5568   128.9600     0.2103     0.5625
  405    8.080   2238.43     0.2579     0.0064     0.1992     0.0808     0.3418     2.5074   129.2800     0.2126     0.5598
  406    8.100   2239.37     0.2598     0.0069     0.2041     0.0810     0.3447     2.6564   129.6000     0.2151     0.5632
  407    8.120   2240.35     0.2594     0.0067     0.2003     0.0812     0.3446     2.5915   129.9200     0.2147     0.5663
  408    8.140   2241.35     0.2593     0.0064     0.2021     0.0814     0.3440     2.4948   130.2400     0.2138     0.5626
  409    8.160   2242.30     0.2607     0.0065     0.2004     0.0816     0.3445     2.4763   130.5600     0.2139     0.5505
  410    8.180   2243.22     0.2640     0.0066     0.2069     0.0818     0.3500     2.5220   130.8800     0.2191     0.5607
  411    8.200   2244.18     0.2673     0.0066     0.2134     0.0820     0.3561     2.5123   131.2000     0.2249     0.5753
  412    8.220   2245.12     0.2635     0.0067     0.2150     0.0822     0.3542     2.5544   131.5200     0.2227     0.6004
  413    8.240   2246.14     0.2661     0.0067     0.2118     0.0824     0.3555     2.5473   131.8400     0.2237     0.5827
  414    8.260   2247.07     0.2637     0.0068     0.2139     0.0826     0.3531     2.5677   132.1600     0.2210     0.5892
  415    8.280   2248.02     0.2618     0.0068     0.2108     0.0828     0.3510     2.5915   132.4800     0.2186     0.5930
  416    8.300   2249.01     0.2595     0.0069     0.2138     0.0830     0.3485     2.6528   132.8000     0.2157     0.5975
  417    8.320   2249.95     0.2587     0.0074     0.2148     0.0832     0.3492     2.8465   133.1200     0.2161     0.6120
  418    8.340   2250.87     0.2577     0.0074     0.2172     0.0834     0.3482     2.8488   133.4400     0.2147     0.6146
  419    8.360   2251.85     0.2547     0.0075     0.2119     0.0836     0.3445     2.9413   133.7600     0.2107     0.6171
  420    8.380   2252.79     0.2570     0.0077     0.2128     0.0838     0.3462     2.9822   134.0800     0.2122     0.6060
  421    8.400   2253.74     0.2699     0.0074     0.2150     0.0840     0.3608     2.8237   134.4000     0.2264     0.5853
  422    8.420   2254.69     0.2924     0.0074     0.2133     0.0842     0.3822     2.5927   134.7200     0.2475     0.5240
  423    8.440   2255.65     0.2978     0.0074     0.2009     0.0844     0.3814     2.5458   135.0400     0.2463     0.4650
  424    8.460   2256.63     0.2887     0.0071     0.2047     0.0846     0.3744     2.4554   135.3600     0.2391     0.4999
  425    8.480   2257.54     0.2843     0.0067     0.2084     0.0848     0.3710     2.3667   135.6800     0.2353     0.5163
  426    8.500   2258.49     0.2869     0.0068     0.2126     0.0850     0.3759     2.3515   136.0000     0.2399     0.5295
  427    8.520   2259.45     0.2848     0.0073     0.2032     0.0852     0.3722     2.5366   136.3200     0.2359     0.5211
  428    8.540   2260.42     0.2869     0.0074     0.2141     0.0854     0.3742     2.5897   136.6400     0.2375     0.5145
  429    8.560   2261.37     0.2931     0.0075     0.2177     0.0856     0.3851     2.5917   136.9600     0.2482     0.5384
  430    8.580   2262.32     0.3000     0.0079     0.1903     0.0858     0.3819     2.6565   137.2800     0.2446     0.4462
  431    8.600   2263.27     0.3016     0.0081     0.1901     0.0860     0.3811     2.6826   137.6000     0.2435     0.4240
  432    8.620   2264.25     0.3026     0.0077     0.1996     0.0862     0.3848     2.5328   137.9200     0.2469     0.4439
  433    8.640   2265.25     0.2960     0.0078     0.2048     0.0864     0.3798     2.6346   138.2400     0.2416     0.4684
  434    8.660   2266.21     0.2920     0.0069     0.2098     0.0866     0.3783     2.3794   138.5600     0.2398     0.4959
  435    8.680   2267.13     0.2855     0.0062     0.2192     0.0868     0.3775     2.1500   138.8800     0.2387     0.5546
  436    8.700   2268.10     0.2872     0.0060     0.2088     0.0870     0.3767     2.0914   139.2000     0.2375     0.5306
  437    8.720   2269.06     0.2826     0.0059     0.2095     0.0872     0.3697     2.0671   139.5200     0.2302     0.5218
  438    8.740   2270.01     0.2714     0.0057     0.2205     0.0874     0.3624     2.0828   139.8400     0.2225     0.5804
  439    8.760   2270.97     0.2699     0.0058     0.2249     0.0876     0.3640     2.1683   140.1600     0.2239     0.6104
  440    8.780   2271.93     0.2695     0.0059     0.1935     0.0878     0.3575     2.1764   140.4800     0.2170     0.5588
  441    8.800   2272.88     0.2605     0.0056     0.2116     0.0880     0.3471     2.1342   140.8000     0.2063     0.5731
  442    8.820   2273.83     0.2589     0.0058     0.2160     0.0882     0.3497     2.2462   141.1200     0.2085     0.6130
  443    8.840   2274.80     0.2553     0.0057     0.2177     0.0884     0.3464     2.1972   141.4400     0.2050     0.6275
  444    8.860   2275.76     0.2497     0.0059     0.2219     0.0886     0.3422     2.3532   141.7600     0.2005     0.6567
  445    8.880   2276.73     0.2518     0.0059     0.2255     0.0888     0.3461     2.3574   142.0800     0.2041     0.6661
  446    8.900   2277.68     0.2484     0.0061     0.2285     0.0890     0.3441     2.4585   142.4000     0.2017     0.6888
  447    8.920   2278.62     0.2438     0.0058     0.2300     0.0892     0.3404     2.3230   142.7200     0.1977     0.7126
  448    8.940   2279.56     0.2375     0.0051     0.2308     0.0894     0.3343     2.1147   143.0400     0.1912     0.7368
  449    8.960   2280.51     0.2322     0.0055     0.2328     0.0896     0.3296     2.3200   143.3600     0.1863     0.7648
  450    8.980   2281.47     0.2253     0.0058     0.2334     0.0898     0.3233     2.5447   143.6800     0.1796     0.7999
  451    9.000   2282.41     0.2183     0.0054     0.2270     0.0900     0.3150     2.4816   144.0000     0.1710     0.8196
  452    9.020   2283.39     0.2169     0.0051     0.2208     0.0902     0.3118     2.3312   144.3200     0.1675     0.8109
  453    9.040   2284.32     0.2176     0.0053     0.2239     0.0904     0.3112     2.4377   144.6400     0.1666     0.7959
  454    9.060   2285.28     0.2131     0.0055     0.2274     0.0906     0.3082     2.5585   144.9600     0.1632     0.8313
  455    9.080   2286.24     0.2113     0.0049     0.2276     0.0908     0.3067     2.3356   145.2800     0.1615     0.8458
  456    9.100   2287.19     0.2165     0.0051     0.2251     0.0910     0.3109     2.3989   145.6000     0.1653     0.8087
  457    9.120   2288.17     0.2073     0.0049     0.2226     0.0912     0.3022     2.3282   145.9200     0.1563     0.8621
  458    9.140   2289.13     0.1971     0.0048     0.2212     0.0914     0.2892     2.3567   146.2400     0.1429     0.8950
  459    9.160   2290.09     0.1992     0.0049     0.2291     0.0916     0.2945     2.4465   146.5600     0.1479     0.9150
  460    9.180   2291.03     0.2118     0.0047     0.2314     0.0918     0.3091     2.2969   146.8800     0.1622     0.8629
  461    9.200   2292.01     0.2211     0.0048     0.2290     0.0920     0.3176     2.1557   147.2000     0.1704     0.8087
  462    9.220   2292.97     0.2171     0.0047     0.2161     0.0922     0.3100     2.1554   147.5200     0.1625     0.7935
  463    9.240   2293.92     0.2143     0.0047     0.2262     0.0924     0.3081     2.2181   147.8400     0.1603     0.8176
  464    9.260   2294.89     0.2263     0.0047     0.2289     0.0926     0.3223     2.1072   148.1600     0.1741     0.7809
  465    9.280   2295.84     0.2321     0.0046     0.2283     0.0928     0.3284     2.0110   148.4800     0.1799     0.7587
  466    9.300   2296.79     0.2333     0.0045     0.2274     0.0930     0.3292     1.9263   148.8000     0.1804     0.7496
  467    9.320   2297.77     0.2319     0.0040     0.2173     0.0932     0.3256     1.7452   149.1200     0.1765     0.7363
  468    9.340   2298.71     0.2290     0.0036     0.2179     0.0934     0.3199     1.5597   149.4400     0.1704     0.7222
  469    9.360   2299.69     0.2334     0.0036     0.2175     0.0936     0.3261     1.5295   149.7600     0.1763     0.7198
  470    9.380   2300.65     0.2278     0.0035     0.2194     0.0938     0.3188     1.5560   150.0800     0.1687     0.7290
  471    9.400   2301.61     0.2333     0.0040     0.2198     0.0940     0.3265     1.7557   150.4000     0.1761     0.7256
  472    9.420   2302.56     0.2377     0.0042     0.2154     0.0942     0.3287     1.7620   150.7200     0.1780     0.6887
  473    9.440   2303.51     0.2525     0.0039     0.2067     0.0944     0.3419     1.5830   151.0400     0.1909     0.6207
  474    9.460   2304.52     0.2559     0.0040     0.1887     0.0946     0.3365     1.5786   151.3600     0.1851     0.5255
  475    9.480   2305.44     0.2372     0.0040     0.1907     0.0948     0.3168     1.6551   151.6800     0.1651     0.5734
  476    9.500   2306.39     0.2280     0.0038     0.1999     0.0950     0.3103     1.6355   152.0000     0.1583     0.6376
  477    9.520   2307.34     0.2401     0.0040     0.2136     0.0952     0.3279     1.7162   152.3200     0.1756     0.6488
  478    9.540   2308.34     0.2553     0.0036     0.2208     0.0954     0.3468     1.4346   152.6400     0.1941     0.6302
  479    9.560   2309.26     0.2588     0.0038     0.2228     0.0956     0.3527     1.4578   152.9600     0.1998     0.6411
  480    9.580   2310.25     0.2489     0.0040     0.2147     0.0958     0.3395     1.6259   153.2800     0.1862     0.6444
  481    9.600   2311.23     0.2509     0.0045     0.2200     0.0960     0.3422     1.7890   153.6000     0.1886     0.6440
  482    9.620   2312.15     0.2725     0.0049     0.2289     0.0962     0.3674     1.8357   153.9200     0.2135     0.6086
  483    9.640   2313.14     0.2743     0.0047     0.2235     0.0964     0.3700     1.7329   154.2400     0.2157     0.6087
  484    9.660   2314.06     0.2812     0.0051     0.2284     0.0966     0.3755     1.8247   154.5600     0.2209     0.5787
  485    9.680   2315.07     0.2861     0.0050     0.2375     0.0968     0.3848     1.7643   154.8800     0.2299     0.6006
  486    9.700   2316.02     0.2969     0.0054     0.2421     0.0970     0.3981     1.8484   155.2000     0.2429     0.5919
  487    9.720   2316.98     0.2995     0.0057     0.2444     0.0972     0.4019     1.9142   155.5200     0.2463     0.5953
  488    9.740   2317.93     0.3066     0.0057     0.2458     0.0974     0.4099     1.8663   155.8400     0.2540     0.5847
  489    9.760   2318.90     0.3144     0.0057     0.2424     0.0976     0.4158     1.8054   156.1600     0.2596     0.5540
  490    9.780   2319.84     0.3184     0.0063     0.2400     0.0978     0.4192     2.0134   156.4800     0.2627     0.5409
  491    9.800   2320.78     0.3098     0.0066     0.2368     0.0980     0.4112     2.0566   156.8000     0.2544     0.5634
  492    9.820   2321.75     0.3000     0.0069     0.2472     0.0982     0.4022     2.2844   157.1200     0.2451     0.5926
  493    9.840   2322.75     0.3117     0.0070     0.2540     0.0984     0.4179     2.2889   157.4400     0.2605     0.5931
  494    9.860   2323.68     0.3259     0.0066     0.2555     0.0986     0.4333     2.1000   157.7600     0.2756     0.5701
  495    9.880   2324.62     0.3387     0.0064     0.2571     0.0988     0.4460     1.9976   158.0800     0.2879     0.5441
  496    9.900   2325.58     0.3312     0.0062     0.2655     0.0990     0.4414     1.8952   158.4000     0.2830     0.5771
  497    9.920   2326.52     0.3287     0.0000     0.2734     0.0992     0.4424    -0.0042   158.7200     0.2837     0.6050
  498    9.940   2327.50     0.3339    -0.0071     0.2779     0.0994     0.4505    -2.1334   159.0400     0.2915     0.6114
  499    9.960   2330.61     0.3481    -0.0048     0.2861     0.0996     0.4657    -1.3987   159.3600     0.3063     0.5906
  500    9.980   2341.80     0.3867    -0.0014     0.3040     0.0998     0.5118    -0.4135   159.6800     0.3521     0.5685
  501   10.000   2352.99     0.4253     0.0022     0.3219     0.1000     0.5579     0.6551   160.0000     0.3979     0.5464
  502   10.020   2361.47     0.6548     0.0047     0.2751     0.1002     0.7871     1.0530   160.3200     0.6268     0.3834
  503   10.040   2362.43     1.8809     0.0051     0.1117     0.1004     1.9410     0.3604   160.6400     1.7803     0.0283
  504   10.060   2363.40     3.4471     0.0078     0.0937     0.1006     3.4861     0.2689   160.9600     3.3251    -0.0025
  505   10.080   2364.37     4.4280     0.0123     0.0638     0.1008     4.4582     0.2953   161.2800     4.2970    -0.0067
  506   10.100   2365.31     4.6162     0.0195     0.0652     0.1010     4.6422     0.4221   161.6000     4.4806    -0.0087
  507   10.120   2366.25     4.3555     0.0244     0.0676     0.1012     4.3844     0.5479   161.9200     4.2225    -0.0077
  508   10.140   2367.25     3.9531     0.0268     0.0591     0.1014     3.9794     0.6481   162.2400     3.8172    -0.0101
  509   10.160   2368.19     3.3913     0.0333     0.0605     0.1016     3.4164     0.9193   162.5600     3.2538    -0.0129
  510   10.180   2369.14     2.7813     0.0357     0.0596     0.1018     2.8063     1.1830   162.8800     2.6434    -0.0161
  511   10.200   2370.11     2.0835     0.0378     0.0636     0.1020     2.1096     1.6325   163.2000     1.9464    -0.0205
  512   10.220   2371.07     1.6432     0.0388     0.0632     0.1022     1.6700     2.1713   163.5200     1.5064    -0.0257
  513   10.240   2372.00     1.3494     0.0394     0.1088     0.1024     1.3873     2.6599   163.8400     1.2234    -0.0088
  514   10.260   2372.95     1.0163     0.0380     0.1053     0.1026     1.0618     3.4538   164.1600     0.8977     0.0060
  515   10.280   2373.90     0.8644     0.0372     0.1509     0.1028     0.9205     4.0487   164.4800     0.7560     0.0417
  516   10.300   2374.86     0.6900     0.0298     0.1574     0.1030     0.7515     3.9409   164.8000     0.5867     0.0748
  517   10.320   2375.78     0.5535     0.0240     0.1807     0.1032     0.6257     3.9854   165.1200     0.4606     0.1500
  518   10.340   2376.76     0.4429     0.0183     0.2133     0.1034     0.5267     3.8752   165.4400     0.3613     0.2672
  519   10.360   2377.74     0.3955     0.0122     0.2575     0.1036     0.4977     3.0127   165.7600     0.3320     0.4211
  520   10.380   2378.70     0.3878     0.0079     0.2784     0.1038     0.5040     2.0492   166.0800     0.3379     0.5117
  521   10.400   2379.61     0.3702     0.0065     0.2847     0.1040     0.4889     1.7089   166.4000     0.3225     0.5536
  522   10.420   2380.59     0.3566     0.0064     0.2927     0.1042     0.4782     1.7565   166.7200     0.3115     0.5955
  523   10.440   2381.50     0.3487     0.0060     0.2986     0.1044     0.4733     1.6893   167.0400     0.3063     0.6284
  524   10.460   2382.47     0.3383     0.0058     0.3030     0.1046     0.4651     1.6970   167.3600     0.2978     0.6630
  525   10.480   2383.43     0.3292     0.0063     0.3067     0.1048     0.4572     1.9018   167.6800     0.2896     0.6910
  526   10.500   2384.39     0.3268     0.0065     0.3113     0.1050     0.4567     2.0004   168.0000     0.2887     0.7082
  527   10.520   2385.33     0.3330     0.0067     0.3162     0.1052     0.4653     2.0145   168.3200     0.2970     0.7063
  528   10.540   2386.32     0.3431     0.0069     0.3173     0.1054     0.4766     2.0508   168.6400     0.3080     0.6903
  529   10.560   2387.26     0.3485     0.0072     0.3149     0.1056     0.4805     2.0604   168.9600     0.3116     0.6698
  530   10.580   2388.19     0.3471     0.0068     0.3164     0.1058     0.4787     1.9542   169.2800     0.3094     0.6705
  531   10.600   2389.18     0.3561     0.0081     0.3206     0.1060     0.4908     2.3011   169.6000     0.3212     0.6683
  532   10.620   2390.14     0.3610     0.0097     0.3226     0.1062     0.4959     2.6953   169.9200     0.3260     0.6601
  533   10.640   2391.11     0.3610     0.0058     0.3279     0.1064     0.4982     1.5835   170.2400     0.3279     0.6718
  534   10.660   2392.03     0.3640    -0.0022     0.3320     0.1066     0.5027    -0.6113   170.5600     0.3322     0.6739
  535   10.680   2393.01     0.3872    -0.0027     0.3386     0.1068     0.5283    -0.7305   170.8800     0.3574     0.6419
  536   10.700   2393.97     0.4274    -0.0004     0.3452     0.1070     0.5716    -0.1062   171.2000     0.4004     0.5911
  537   10.720   2394.93     0.5489     0.0002     0.3403     0.1072     0.6935     0.0439   171.5200     0.5219     0.4615
  538   10.740   2395.88     1.5775     0.0049     0.3075     0.1074     1.7101     0.3482   171.8400     1.5382     0.1459
  539   10.760   2396.88     3.4776     0.0074     0.1806     0.1076     3.5656     0.2353   172.1600     3.3934     0.0322
  540   10.780   2397.87     6.3432     0.0114     0.1284     0.1078     6.3968     0.1858   172.4800     6.2244     0.0032
  541   10.800   2398.88     9.2597     0.0123     0.0848     0.1080     9.3006     0.1381   172.8000     9.1278    -0.0011
  542   10.820   2399.88    12.5487     0.0149     0.0904     0.1082    12.5930     0.1259   173.1200    12.4199    -0.0002
  543   10.840   2400.89    15.5403     0.0203     0.0783     0.1084    15.5671     0.1371   173.4400    15.3936    -0.0029
  544   10.860   2401.90    17.4075     0.0239     0.0772     0.1086    17.4386     0.1409   173.7600    17.2649    -0.0020
  545   10.880   2402.90    18.5101     0.0267     0.0757     0.1088    18.5436     0.1488   174.0800    18.3695    -0.0016
  546   10.900   2403.88    19.9395     0.0290     0.0919     0.1090    19.9722     0.1497   174.4000    19.7978    -0.0016
  547   10.920   2404.84    20.8679     0.0319     0.0954     0.1092    20.9086     0.1535   174.7200    20.7339    -0.0006
  548   10.940   2405.76    21.4321     0.0372     0.0826     0.1094    21.4682     0.1757   175.0400    21.2931    -0.0011
  549   10.960   2406.65    21.9185     0.0414     0.0938     0.1096    21.9593     0.1915   175.3600    21.7839    -0.0006
  550   10.980   2407.59    22.6597     0.0447     0.0697     0.1098    22.6942     0.2002   175.6800    22.5185    -0.0012
  551   11.000   2408.56    23.6937     0.0457     0.0569     0.1100    23.7192     0.1974   176.0000    23.5432    -0.0021
  552   11.020   2409.48    24.8024     0.0480     0.0778     0.1102    24.8297     0.1977   176.3200    24.6533    -0.0018
  553   11.040   2410.41    25.8916     0.0516     0.0960     0.1104    25.9286     0.2040   176.6400    25.7520    -0.0009
  554   11.060   2411.36    27.1244     0.0580     0.0852     0.1106    27.1603     0.2189   176.9600    26.9833    -0.0009
  555   11.080   2412.30    28.2905     0.0659     0.1039     0.1108    28.3311     0.2379   177.2800    28.1538    -0.0005
  556   11.100   2413.21    28.8846     0.0742     0.1053     0.1110    28.9293     0.2581   177.6000    28.7517    -0.0002
  557   11.120   2414.15    29.1566     0.0847     0.0997     0.1112    29.1986     0.2910   177.9200    29.0206    -0.0004
  558   11.140   2415.07    29.3253     0.0935     0.0967     0.1114    29.3647     0.3196   178.2400    29.1864    -0.0006
  559   11.160   2416.02    29.5239     0.1044     0.0992     0.1116    29.5663     0.3546   178.5600    29.3877    -0.0004
  560   11.180   2416.95    29.7643     0.1181     0.1059     0.1118    29.8076     0.3983   178.8800    29.6287    -0.0003
  561   11.200   2417.91    29.9414     0.1268     0.0908     0.1120    29.9838     0.4246   179.2000    29.8046    -0.0004
  562   11.220   2418.84    29.9548     0.1390     0.1084     0.1122    29.9975     0.4639   179.5200    29.8180    -0.0003
  563   11.240   2419.76    30.1175     0.1506     0.1030     0.1124    30.1638     0.5025   179.8400    29.9840    -0.0001
  564   11.260   2420.71    30.5111     0.1641     0.1238     0.1126    30.5633     0.5380   180.1600    30.3831     0.0004
  565   11.280   2421.59    30.3291     0.1799     0.1252     0.1128    30.3831     0.5914   180.4800    30.2026     0.0005
  566   11.300   2422.56    30.0070     0.1938     0.1072     0.1130    30.0528     0.6405   180.8000    29.8720    -0.0001
  567   11.320   2423.47    29.6430     0.2002     0.1207     0.1132    29.6926     0.6708   181.1200    29.5114     0.0002
  568   11.340   2424.41    29.3886     0.1983     0.0974     0.1134    29.4353     0.6724   181.4400    29.2539    -0.0001
  569   11.360   2425.34    29.2848     0.2026     0.1085     0.1136    29.3293     0.6915   181.7600    29.1475    -0.0003
  570   11.380   2426.26    29.2952     0.2036     0.1111     0.1138    29.3429     0.6947   182.0800    29.1608     0.0000
  571   11.400   2427.17    29.4077     0.2131     0.1078     0.1140    29.4530     0.7253   182.4000    29.2706    -0.0002
  572   11.420   2428.12    29.8833     0.2251     0.1107     0.1142    29.9272     0.7597   182.7200    29.7445    -0.0003
  573   11.440   2429.07    30.7092     0.2286     0.1199     0.1144    30.7592     0.7548   183.0400    30.5761     0.0002
  574   11.460   2430.03    31.7302     0.2264     0.1066     0.1146    31.7785     0.7236   183.3600    31.5952     0.0000
  575   11.480   2431.01    32.8117     0.2231     0.1000     0.1148    32.8534     0.6887   183.6800    32.6697    -0.0005
  576   11.500   2431.93    33.6672     0.2132     0.1075     0.1150    33.7097     0.6372   184.0000    33.5257    -0.0004
  577   11.520   2432.87    34.0995     0.2015     0.0973     0.1152    34.1422     0.5922   184.3200    33.9579    -0.0004
  578   11.540   2433.81    34.5006     0.1957     0.0599     0.1154    34.5299     0.5698   184.6400    34.3453    -0.0013
  579   11.560   2434.79    35.2957     0.1680     0.0548     0.1156    35.3163     0.4786   184.9600    35.1313    -0.0019
  580   11.580   2435.75    36.0615     0.1526     0.0542     0.1158    36.0879     0.4255   185.2800    35.9027    -0.0015
  581   11.600   2436.72    36.7650     0.1427     0.0737     0.1160    36.7879     0.3910   185.6000    36.6023    -0.0017
  582   11.620   2437.67    37.7435     0.1365     0.0723     0.1162    37.7784     0.3657   185.9200    37.5925    -0.0009
  583   11.640   2438.70    39.6063     0.1406     0.0807     0.1164    39.6345     0.3627   186.2400    39.4483    -0.0012
  584   11.660   2439.67    41.1013     0.1455     0.0920     0.1166    41.1376     0.3605   186.5600    40.9510    -0.0007
  585   11.680   2440.61    42.0928     0.1503     0.1075     0.1168    42.1379     0.3582   186.8800    41.9510    -0.0002
  586   11.700   2441.55    42.1893     0.1598     0.1108     0.1170    42.2356     0.3782   187.2000    42.0484    -0.0002
  587   11.720   2442.48    41.0521     0.1507     0.1168     0.1172    41.0991     0.3679   187.5200    40.9115    -0.0001
  588   11.740   2444.21    39.4339     0.1476     0.1095     0.1174    39.4813     0.3843   187.8400    39.2935    -0.0001
  589   11.760   2448.35    37.5627     0.1444     0.0996     0.1176    37.6060     0.4007   188.1600    37.4178    -0.0004
  590   11.780   2452.48    35.6914     0.1413     0.0898     0.1178    35.7305     0.4170   188.4800    35.5421    -0.0007
  591   11.800   2456.48    32.4696     0.1381     0.1129     0.1180    32.5225     0.4334   188.8000    32.3337     0.0002
  592   11.820   2457.51    34.5930     0.1330     0.1088     0.1182    34.6348     0.4044   189.1200    34.4457    -0.0005
  593   11.840   2469.69    34.8971     0.1444     0.1037     0.1184    34.9413     0.4171   189.4400    34.7519    -0.0004
  594   11.860   2484.47    35.2445     0.1216     0.0985     0.1186    35.2867     0.3513   189.7600    35.0969    -0.0005
  595   11.880   2499.26    35.5920                0.0934     0.1188    35.6320              190.0800    35.4419    -0.0007
  596   11.900   2514.04    35.9395                0.0882     0.1190    35.9773              190.4000    35.7869    -0.0008
  597   11.920   2525.71    37.7582                0.0986     0.1192    37.7973              190.7200    37.6066    -0.0007
  598   11.940   2533.01    41.6534                0.1202     0.1194    41.6990              191.0400    41.5080    -0.0003
  599   11.960   2537.41    42.4509                0.1166     0.1196    42.5007              191.3600    42.3093     0.0000
  600   11.969   2538.69    48.1131                           0.1197    48.1665              191.5094    47.9750     0.0002
 
 
