

 Program UNIPLOT                         version 05.36.02
 _______________
 (c) Fugro Netherlands Marine, Nootdorp, The Netherlands


 ASCII representation of data plotted on a graph.

 This ASCII file presents data interpolated to values per fixed depth interval.
 The data are corrected for the depth-offset differences between the various 
 transducers in the penetrometer.

 The records at the start of penetration may include no values or anomalous
 values where a depth offset implies incomplete penetration of a particular
 sensor into the ground.

 The records at the end of penetration may include no values for data channels
 where the transducer did not reach this depth.

 The reference level for test values is (1) the ground surface for onshore tests and (2) the seafloor for nearshore and offshore tests.

 UNICAS data file          : CPT-2026.000                            
 Output using command file : PlotASCII.cmd

 ASCII file created at : date          :09-Dec-2021
                         time          :09:23:46
 Project number                        :20024805
 Date of testing                       :08-Dec-2021
 Location                              :Hong Kong Offshore Wind Farm Project
 Test name                             :CPT-2026
 Penetrometer                          :F7.5CKE2HAW2/B/3284
 Serial no                             :1701-3284

 Table description:
 Column ID                             :Parameter name
 ___________________________________________________________________________________
 Rec                                   :Record ID, Record ID [-]
 Depth                                 :Depth, Depth [m]
 Time                                  :Time, Time [s]
 Cone                                  :Cone Resistance, Cone Resistance [MPa]
 Friction                              :Sleeve Friction, Sleeve Friction [MPa]
 Pore 2                                :Porewater Pressure, Porewater Pressure at Shoulder [MPa]
 HydroPress                            :Hydrostatic Pressure, Hydrostatic Pressure [MPa]
 qt                                    :Total Cone Resistance, Total Cone Resistance [MPa]
 Fric_ratio                            :Friction Ratio, Friction Ratio [%]
 SigmaVert                             :Vertical stress, Vertical stress [kPa] as specified in ground model
 Qnet                                  :Net Cone Resistance, Net Cone Resistance [MPa], unit weight as specified in ground model
 Bq                                    :Porewater Pressure Ratio, Porewater Pressure Ratio [-], unit weight as specified in ground model


 Data table:
  Rec    Depth      Time       Cone   Friction     Pore 2 HydroPress         qt Fric_ratio  SigmaVert       Qnet         Bq
   No        m         s        MPa        MPa        MPa        MPa        MPa          %        kPa        MPa          -
    1    0.000   2397.78     0.0000                           0.0000     0.0000                0.0000     0.0000           
    2    0.020   2398.74     0.0047                0.0016     0.0002     0.0052                0.3200     0.0049     0.2248
    3    0.040   2399.69     0.0048                0.0021     0.0004     0.0056                0.6400     0.0050     0.2991
    4    0.060   2400.65     0.0032     0.0002     0.0023     0.0006     0.0042     4.4627     0.9600     0.0032     0.6222
    5    0.080   2401.61     0.0050     0.0002     0.0021     0.0008     0.0059     3.6039     1.2800     0.0046     0.2877
    6    0.100   2402.56     0.0036     0.0007     0.0021     0.0010     0.0045    28.2656     1.6000     0.0029     0.5219
    7    0.120   2403.56     0.0069     0.0009     0.0018     0.0012     0.0077    11.1013     1.9200     0.0058     0.1079
    8    0.140   2404.52     0.0064     0.0004     0.0020     0.0014     0.0072     5.1517     2.2400     0.0050     0.1777
    9    0.160   2405.48     0.0034     0.0006     0.0022     0.0016     0.0043    19.1473     2.5600     0.0017     0.2669
   10    0.180   2406.39     0.0045     0.0006     0.0022     0.0018     0.0055    15.7908     2.8800     0.0027     0.2720
   11    0.200   2407.36     0.0037     0.0006     0.0020     0.0020     0.0046    10.7718     3.2000     0.0014     0.0237
   12    0.220   2408.31     0.0068     0.0009     0.0010     0.0022     0.0072   190.9369     3.5200     0.0037    -0.1978
   13    0.240   2409.27     0.0037     0.0008     0.0011     0.0024     0.0041    43.8384     3.8400     0.0003    -4.4090
   14    0.260   2410.25     0.0059     0.0010     0.0018     0.0026     0.0065    19.8398     4.1600     0.0024    -0.4791
   15    0.280   2411.21     0.0124     0.0002     0.0027     0.0028     0.0134     2.7831     4.4800     0.0089    -0.0431
   16    0.300   2412.17     0.0167     0.0003     0.0041     0.0030     0.0181     1.4522     4.8000     0.0133     0.0339
   17    0.320   2413.12     0.0368     0.0018     0.0051     0.0032     0.0389    13.5124     5.1200     0.0338     0.0845
   18    0.340   2414.05     0.3426     0.0037     0.0056     0.0034     0.3449     2.6816     5.4400     0.3395     0.0065
   19    0.360   2414.98     0.4613     0.0026     0.0056     0.0036     0.4637     0.5798     5.7600     0.4579     0.0047
   20    0.380   2415.92     0.3636     0.0030     0.0053     0.0038     0.3659     0.6738     6.0800     0.3598     0.0050
   21    0.400   2416.85     0.1826     0.0046     0.0040     0.0040     0.1845     2.6223     6.4000     0.1781     0.0031
   22    0.420   2417.80     0.5454     0.0016     0.0030     0.0042     0.5469     0.6391     6.7200     0.5402    -0.0011
   23    0.440   2418.80     0.4496     0.0021     0.0026     0.0044     0.4507     0.3874     7.0400     0.4436    -0.0041
   24    0.460   2419.81     0.8043     0.0018     0.0034     0.0046     0.8056     0.2649     7.3600     0.7982    -0.0020
   25    0.480   2420.72     0.9359     0.0024     0.0045     0.0048     0.9376     0.3021     7.6800     0.9299    -0.0009
   26    0.500   2421.69     0.4473     0.0022     0.0050     0.0050     0.4492     0.3037     8.0000     0.4412    -0.0022
   27    0.520   2422.63     0.1143     0.0011     0.0072     0.0052     0.1172     1.4996     8.3200     0.1089     0.0165
   28    0.540   2423.59     0.1836     0.0018     0.0079     0.0054     0.1868     1.2255     8.6400     0.1782     0.0128
   29    0.560   2424.54     0.2287     0.0111     0.0070     0.0056     0.2317     5.8229     8.9600     0.2228     0.0081
   30    0.580   2425.73     0.2734     0.0066     0.0068     0.0058     0.2764     2.9652     9.2800     0.2671     0.0066
   31    0.600   2427.48     0.3243     0.0053     0.0045     0.0060     0.3267     1.5283     9.6000     0.3171    -0.0014
   32    0.620   2428.44     0.5159     0.0046     0.0045     0.0062     0.5175     1.5062     9.9200     0.5076    -0.0049
   33    0.640   2429.39     0.7421     0.0046     0.0030     0.0064     0.7428     1.4581    10.2400     0.7326    -0.0064
   34    0.660   2430.35     0.3069     0.0046     0.0038     0.0066     0.3079     1.4100    10.5600     0.2974    -0.0140
   35    0.680   2431.31     0.3719     0.0035     0.0022     0.0068     0.3728     1.4240    10.8800     0.3619    -0.0131
   36    0.700   2432.29     0.1295     0.0024     0.0062     0.0070     0.1299     1.4833    11.2000     0.1187    -0.0515
   37    0.720   2433.21     0.0521     0.0018     0.0083     0.0072     0.0554     3.2054    11.5200     0.0439     0.0134
   38    0.740   2455.43     0.0486     0.0020     0.0111     0.0074     0.0529     4.3763    11.8400     0.0410     0.0568
   39    0.760   2480.43     0.0529     0.0021     0.0139     0.0076     0.0583     4.5862    12.1600     0.0461     0.1091
   40    0.780   2494.73     0.0549     0.0019     0.0181     0.0078     0.0621     3.4310    12.4800     0.0496     0.1875
   41    0.800   2495.69     0.0575     0.0018     0.0206     0.0080     0.0658     3.2062    12.8000     0.0530     0.2238
   42    0.820   2496.65     0.0578     0.0016     0.0213     0.0082     0.0667     2.8821    13.1200     0.0536     0.2447
   43    0.840   2497.60     0.0562     0.0012     0.0222     0.0084     0.0653     2.2608    13.4400     0.0519     0.2561
   44    0.860   2498.58     0.0608     0.0010     0.0236     0.0086     0.0705     1.7005    13.7600     0.0568     0.2587
   45    0.880   2499.52     0.0572     0.0016     0.0229     0.0088     0.0670     2.8434    14.0800     0.0529     0.2741
   46    0.900   2500.45     0.0608     0.0016     0.0195     0.0090     0.0693     2.5972    14.4000     0.0549     0.2061
   47    0.920   2501.40     0.0620     0.0014     0.0202     0.0092     0.0701     2.2886    14.7200     0.0554     0.1832
   48    0.940   2502.37     0.0678     0.0018     0.0183     0.0094     0.0753     2.7617    15.0400     0.0603     0.1410
   49    0.960   2503.35     0.0648     0.0013     0.0178     0.0096     0.0720     2.0438    15.3600     0.0567     0.1325
   50    0.980   2504.27     0.0628     0.0014     0.0180     0.0098     0.0699     2.0729    15.6800     0.0542     0.1322
   51    1.000   2505.23     0.0684     0.0013     0.0180     0.0100     0.0758     2.0915    16.0000     0.0598     0.1269
   52    1.020   2506.19     0.0645     0.0018     0.0187     0.0102     0.0723     2.7614    16.3200     0.0559     0.1489
   53    1.040   2507.14     0.0646     0.0015     0.0204     0.0104     0.0728     2.3027    16.6400     0.0561     0.1615
   54    1.060   2508.11     0.0680     0.0014     0.0221     0.0106     0.0771     2.0509    16.9600     0.0602     0.1840
   55    1.080   2509.06     0.0662     0.0014     0.0234     0.0108     0.0762     2.0314    17.2800     0.0589     0.2213
   56    1.100   2509.99     0.0682     0.0014     0.0210     0.0110     0.0768     2.0788    17.6000     0.0592     0.1590
   57    1.120   2510.95     0.0681     0.0013     0.0239     0.0112     0.0776     1.8416    17.9200     0.0596     0.1913
   58    1.140   2511.94     0.0639     0.0013     0.0268     0.0114     0.0748     2.0658    18.2400     0.0566     0.2575
   59    1.160   2512.90     0.0635     0.0012     0.0279     0.0116     0.0751     1.9476    18.5600     0.0565     0.2831
   60    1.180   2513.85     0.0645     0.0010     0.0290     0.0118     0.0764     1.5194    18.8800     0.0575     0.2887
   61    1.200   2514.80     0.0632     0.0014     0.0302     0.0120     0.0758     2.1529    19.2000     0.0566     0.3162
   62    1.220   2515.76     0.0664     0.0010     0.0320     0.0122     0.0796     1.5289    19.5200     0.0600     0.3184
   63    1.240   2516.73     0.0742     0.0011     0.0332     0.0124     0.0880     1.6413    19.8400     0.0682     0.2991
   64    1.260   2517.69     0.0747     0.0013     0.0337     0.0126     0.0888     1.7227    20.1600     0.0686     0.3050
   65    1.280   2518.63     0.0774     0.0012     0.0310     0.0128     0.0910     1.5631    20.4800     0.0705     0.2779
   66    1.300   2519.58     0.0766     0.0009     0.0278     0.0130     0.0885     1.1224    20.8000     0.0677     0.2267
   67    1.320   2520.57     0.0757     0.0010     0.0286     0.0132     0.0878     1.3444    21.1200     0.0667     0.2347
   68    1.340   2521.52     0.0787     0.0010     0.0301     0.0134     0.0906     1.2969    21.4400     0.0692     0.2169
   69    1.360   2522.44     0.0805     0.0010     0.0344     0.0136     0.0943     1.3324    21.7600     0.0726     0.2644
   70    1.380   2523.41     0.0860     0.0009     0.0325     0.0138     0.0997     1.0926    22.0800     0.0776     0.2425
   71    1.400   2524.36     0.0923     0.0012     0.0341     0.0140     0.1061     1.3807    22.4000     0.0837     0.2263
   72    1.420   2525.32     0.0887     0.0011     0.0378     0.0142     0.1044     1.1872    22.7200     0.0816     0.2836
   73    1.440   2526.29     0.0959     0.0011     0.0397     0.0144     0.1118     1.1611    23.0400     0.0888     0.2644
   74    1.460   2527.23     0.0961     0.0012     0.0424     0.0146     0.1137     1.2413    23.3600     0.0903     0.3016
   75    1.480   2528.17     0.1037     0.0013     0.0401     0.0148     0.1209     1.2469    23.6800     0.0972     0.2678
   76    1.500   2529.12     0.1085     0.0011     0.0398     0.0150     0.1253     0.9920    24.0000     0.1013     0.2472
   77    1.520   2530.09     0.1092     0.0009     0.0384     0.0152     0.1257     0.8960    24.3200     0.1014     0.2378
   78    1.540   2531.07     0.1149     0.0017     0.0323     0.0154     0.1293     1.5247    24.6400     0.1047     0.1815
   79    1.560   2532.02     0.1225     0.0014     0.0314     0.0156     0.1354     1.1456    24.9600     0.1104     0.1359
   80    1.580   2532.97     0.1235     0.0014     0.0328     0.0158     0.1374     1.1533    25.2800     0.1121     0.1543
   81    1.600   2533.93     0.1225     0.0021     0.0358     0.0160     0.1375     1.6744    25.6000     0.1119     0.1750
   82    1.620   2534.89     0.1297     0.0019     0.0283     0.0162     0.1425     1.5363    25.9200     0.1165     0.1230
   83    1.640   2535.85     0.1559     0.0022     0.0328     0.0164     0.1689     1.5534    26.2400     0.1426     0.1011
   84    1.660   2536.80     0.1621     0.0021     0.0356     0.0166     0.1772     1.3160    26.5600     0.1506     0.1281
   85    1.680   2537.77     0.1660     0.0018     0.0324     0.0168     0.1808     1.0667    26.8800     0.1539     0.1186
   86    1.700   2538.72     0.1651     0.0018     0.0293     0.0170     0.1765     1.0373    27.2000     0.1493     0.0682
   87    1.720   2539.67     0.1535     0.0025     0.0408     0.0172     0.1692     1.5900    27.5200     0.1417     0.1421
   88    1.740   2540.63     0.1530     0.0022     0.0468     0.0174     0.1721     1.4379    27.8400     0.1443     0.1952
   89    1.760   2541.58     0.1582     0.0021     0.0438     0.0176     0.1774     1.3224    28.1600     0.1492     0.1881
   90    1.780   2542.54     0.1653     0.0021     0.0405     0.0178     0.1823     1.2962    28.4800     0.1538     0.1473
   91    1.800   2543.48     0.1650     0.0020     0.0426     0.0180     0.1826     1.1895    28.8000     0.1538     0.1549
   92    1.820   2544.45     0.1597     0.0020     0.0481     0.0182     0.1794     1.2019    29.1200     0.1503     0.1904
   93    1.840   2545.40     0.1542     0.0017     0.0530     0.0184     0.1757     1.0939    29.4400     0.1463     0.2243
   94    1.860   2546.34     0.1532     0.0015     0.0575     0.0186     0.1769     0.9520    29.7600     0.1471     0.2569
   95    1.880   2547.30     0.1586     0.0019     0.0603     0.0188     0.1834     1.1951    30.0800     0.1533     0.2632
   96    1.900   2548.26     0.1637     0.0021     0.0621     0.0190     0.1899     1.3343    30.4000     0.1595     0.2717
   97    1.920   2549.21     0.1616     0.0017     0.0606     0.0192     0.1873     1.0256    30.7200     0.1566     0.2677
   98    1.940   2550.17     0.1638     0.0020     0.0540     0.0194     0.1874     1.2476    31.0400     0.1564     0.2351
   99    1.960   2551.12     0.1786     0.0020     0.0535     0.0196     0.2009     1.1629    31.3600     0.1696     0.1976
  100    1.980   2552.08     0.1881     0.0018     0.0577     0.0198     0.2115     0.9275    31.6800     0.1798     0.2003
  101    2.000   2553.03     0.1977     0.0024     0.0558     0.0200     0.2222     1.2242    32.0000     0.1902     0.2020
  102    2.020   2553.99     0.1998     0.0022     0.0493     0.0202     0.2214     1.0963    32.3200     0.1891     0.1648
  103    2.040   2554.96     0.1974     0.0023     0.0537     0.0204     0.2193     1.1734    32.6400     0.1867     0.1697
  104    2.060   2555.94     0.1882     0.0018     0.0594     0.0206     0.2124     0.9189    32.9600     0.1795     0.2065
  105    2.080   2556.89     0.1812     0.0020     0.0614     0.0208     0.2069     1.1030    33.2800     0.1736     0.2331
  106    2.100   2557.84     0.1738     0.0019     0.0629     0.0210     0.1998     1.1011    33.6000     0.1662     0.2460
  107    2.120   2558.80     0.1777     0.0019     0.0663     0.0212     0.2048     1.0817    33.9200     0.1709     0.2537
  108    2.140   2559.76     0.1860     0.0021     0.0675     0.0214     0.2143     1.1916    34.2400     0.1800     0.2552
  109    2.160   2560.72     0.1987     0.0024     0.0581     0.0216     0.2247     1.2427    34.5600     0.1901     0.2117
  110    2.180   2561.65     0.2060     0.0023     0.0534     0.0218     0.2286     1.1349    34.8800     0.1937     0.1655
  111    2.200   2562.63     0.2231     0.0021     0.0555     0.0220     0.2458     0.9989    35.2000     0.2106     0.1527
  112    2.220   2563.58     0.2313     0.0024     0.0613     0.0222     0.2565     1.0590    35.5200     0.2210     0.1716
  113    2.240   2564.56     0.2498     0.0026     0.0558     0.0224     0.2740     1.0974    35.8400     0.2381     0.1479
  114    2.260   2565.52     0.2493     0.0024     0.0592     0.0226     0.2739     0.9404    36.1600     0.2378     0.1515
  115    2.280   2566.47     0.2350     0.0026     0.0503     0.0228     0.2565     1.1036    36.4800     0.2200     0.1287
  116    2.300   2567.44     0.2271     0.0026     0.0416     0.0230     0.2460     1.1367    36.8000     0.2092     0.1054
  117    2.320   2568.39     0.2118     0.0027     0.0464     0.0232     0.2297     1.2552    37.1200     0.1925     0.1010
  118    2.340   2569.36     0.1978     0.0028     0.0549     0.0234     0.2196     1.3842    37.4400     0.1822     0.1575
  119    2.360   2570.27     0.1880     0.0030     0.0586     0.0236     0.2123     1.5646    37.7600     0.1746     0.1964
  120    2.380   2571.24     0.1876     0.0026     0.0544     0.0238     0.2107     1.3774    38.0800     0.1726     0.1812
  121    2.400   2572.23     0.1860     0.0031     0.0551     0.0240     0.2092     1.6639    38.4000     0.1708     0.1820
  122    2.420   2573.17     0.1808     0.0026     0.0596     0.0242     0.2051     1.4412    38.7200     0.1663     0.2019
  123    2.440   2574.13     0.1761     0.0025     0.0641     0.0244     0.2026     1.4313    39.0400     0.1636     0.2364
  124    2.460   2575.09     0.1883     0.0026     0.0640     0.0246     0.2150     1.4307    39.3600     0.1757     0.2231
  125    2.480   2576.04     0.2040     0.0028     0.0658     0.0248     0.2315     1.3834    39.6800     0.1918     0.2115
  126    2.500   2577.00     0.2083     0.0026     0.0700     0.0250     0.2371     1.2693    40.0000     0.1971     0.2216
  127    2.520   2577.99     0.2260     0.0029     0.0657     0.0252     0.2540     1.2876    40.3200     0.2137     0.1940
  128    2.540   2578.89     0.2365     0.0028     0.0608     0.0254     0.2628     1.1901    40.6400     0.2221     0.1676
  129    2.560   2579.89     0.2268     0.0027     0.0601     0.0256     0.2522     1.1577    40.9600     0.2112     0.1649
  130    2.580   2580.85     0.2145     0.0027     0.0632     0.0258     0.2410     1.2022    41.2800     0.1997     0.1868
  131    2.600   2581.80     0.2103     0.0027     0.0631     0.0260     0.2370     1.3102    41.6000     0.1954     0.1922
  132    2.620   2582.81     0.2040     0.0026     0.0619     0.0262     0.2300     1.2570    41.9200     0.1881     0.1901
  133    2.640   2583.74     0.1952     0.0024     0.0670     0.0264     0.2224     1.2104    42.2400     0.1802     0.2128
  134    2.660   2584.69     0.1886     0.0025     0.0752     0.0266     0.2190     1.3185    42.5600     0.1765     0.2602
  135    2.680   2585.66     0.1980     0.0029     0.0805     0.0268     0.2313     1.4521    42.8800     0.1885     0.2791
  136    2.700   2586.61     0.2149     0.0033     0.0786     0.0270     0.2485     1.5276    43.2000     0.2053     0.2584
  137    2.720   2587.59     0.2370     0.0038     0.0785     0.0272     0.2698     1.6333    43.5200     0.2262     0.2243
  138    2.740   2588.54     0.2594     0.0046     0.0687     0.0274     0.2899     1.8100    43.8400     0.2461     0.1851
  139    2.760   2589.51     0.2847     0.0047     0.0614     0.0276     0.3118     1.6617    44.1600     0.2677     0.1378
  140    2.780   2593.29     0.2943     0.0045     0.0483     0.0278     0.3152     1.4935    44.4800     0.2707     0.0808
  141    2.800   2610.04     0.2683     0.0052     0.0441     0.0280     0.2874     1.7483    44.8000     0.2426     0.0708
  142    2.820   2626.79     0.2423     0.0050     0.0406     0.0282     0.2597     1.6607    45.1200     0.2145     0.0608
  143    2.840   2631.07     0.2261     0.0047     0.0441     0.0284     0.2440     2.0063    45.4400     0.1985     0.0711
  144    2.860   2632.02     0.2105     0.0044     0.0479     0.0286     0.2300     2.0087    45.7600     0.1842     0.0969
  145    2.880   2632.97     0.2023     0.0043     0.0540     0.0288     0.2239     2.0784    46.0800     0.1778     0.1281
  146    2.900   2633.96     0.1886     0.0041     0.0575     0.0290     0.2123     2.1032    46.4000     0.1659     0.1663
  147    2.920   2634.92     0.1735     0.0041     0.0604     0.0292     0.1985     2.2980    46.7200     0.1518     0.2003
  148    2.940   2635.87     0.1637     0.0037     0.0605     0.0294     0.1893     2.2008    47.0400     0.1422     0.2203
  149    2.960   2636.83     0.1636     0.0033     0.0630     0.0296     0.1892     2.0121    47.3600     0.1419     0.2206
  150    2.980   2637.79     0.1663     0.0033     0.0700     0.0298     0.1946     1.9993    47.6800     0.1469     0.2556
  151    3.000   2638.75     0.1666     0.0033     0.0765     0.0300     0.1979     1.9591    48.0000     0.1499     0.2977
  152    3.020   2639.68     0.1729     0.0035     0.0795     0.0302     0.2061     2.0089    48.3200     0.1578     0.3087
  153    3.040   2640.63     0.1724     0.0035     0.0749     0.0304     0.2053     2.0333    48.6400     0.1567     0.3054
  154    3.060   2641.59     0.1770     0.0036     0.0698     0.0306     0.2064     2.0793    48.9600     0.1575     0.2501
  155    3.080   2642.54     0.1756     0.0041     0.0693     0.0308     0.2047     2.3195    49.2800     0.1554     0.2484
  156    3.100   2643.52     0.1783     0.0036     0.0634     0.0310     0.2057     2.0242    49.6000     0.1561     0.2186
  157    3.120   2644.50     0.1688     0.0029     0.0683     0.0312     0.1964     1.7109    49.9200     0.1465     0.2367
  158    3.140   2645.46     0.1767     0.0035     0.0751     0.0314     0.2072     2.0400    50.2400     0.1569     0.2616
  159    3.160   2646.42     0.1761     0.0036     0.0822     0.0316     0.2095     2.0798    50.5600     0.1589     0.3011
  160    3.180   2647.39     0.2016     0.0042     0.0881     0.0318     0.2378     2.2121    50.8800     0.1869     0.2912
  161    3.200   2648.35     0.2236     0.0042     0.0853     0.0320     0.2605     1.9496    51.2000     0.2093     0.2664
  162    3.220   2649.31     0.2335     0.0046     0.0766     0.0322     0.2668     2.0284    51.5200     0.2153     0.2187
  163    3.240   2650.28     0.2339     0.0054     0.0689     0.0324     0.2630     2.3060    51.8400     0.2112     0.1745
  164    3.260   2651.22     0.2233     0.0054     0.0680     0.0326     0.2514     2.4196    52.1600     0.1993     0.1729
  165    3.280   2652.19     0.2235     0.0056     0.0737     0.0328     0.2535     2.5166    52.4800     0.2010     0.1918
  166    3.300   2653.13     0.2219     0.0056     0.0774     0.0330     0.2543     2.5420    52.8000     0.2015     0.2192
  167    3.320   2654.10     0.2212     0.0055     0.0777     0.0332     0.2536     2.4396    53.1200     0.2005     0.2192
  168    3.340   2655.07     0.2104     0.0055     0.0815     0.0334     0.2443     2.5672    53.4400     0.1909     0.2477
  169    3.360   2656.01     0.2041     0.0053     0.0801     0.0336     0.2380     2.5668    53.7600     0.1843     0.2558
  170    3.380   2657.01     0.2059     0.0054     0.0760     0.0338     0.2375     2.6523    54.0800     0.1834     0.2265
  171    3.400   2657.95     0.2058     0.0048     0.0800     0.0340     0.2386     2.3207    54.4000     0.1842     0.2393
  172    3.420   2658.92     0.1995     0.0050     0.0836     0.0342     0.2343     2.4551    54.7200     0.1796     0.2712
  173    3.440   2659.88     0.1886     0.0048     0.0852     0.0344     0.2246     2.5145    55.0400     0.1696     0.3029
  174    3.460   2660.79     0.1866     0.0039     0.0846     0.0346     0.2217     2.0985    55.3600     0.1664     0.2945
  175    3.480   2661.75     0.1774     0.0043     0.0870     0.0348     0.2135     2.3740    55.6800     0.1578     0.3239
  176    3.500   2662.70     0.1850     0.0045     0.0901     0.0350     0.2223     2.5036    56.0000     0.1663     0.3228
  177    3.520   2663.63     0.1800     0.0042     0.0927     0.0352     0.2187     2.3696    56.3200     0.1624     0.3513
  178    3.540   2664.59     0.1883     0.0038     0.0923     0.0354     0.2273     2.0506    56.6400     0.1707     0.3377
  179    3.560   2665.55     0.1916     0.0037     0.0782     0.0356     0.2270     2.0036    56.9600     0.1700     0.2865
  180    3.580   2666.53     0.1962     0.0042     0.0816     0.0358     0.2292     2.1419    57.2800     0.1720     0.2500
  181    3.600   2667.51     0.1960     0.0038     0.0874     0.0360     0.2320     1.9285    57.6000     0.1744     0.2851
  182    3.620   2668.47     0.1907     0.0038     0.0917     0.0362     0.2285     1.9685    57.9200     0.1706     0.3157
  183    3.640   2669.44     0.1960     0.0040     0.0959     0.0364     0.2360     2.0807    58.2400     0.1778     0.3312
  184    3.660   2670.40     0.2022     0.0042     0.0952     0.0366     0.2424     2.0912    58.5600     0.1838     0.3210
  185    3.680   2671.35     0.2026     0.0041     0.0932     0.0368     0.2412     2.0191    58.8800     0.1823     0.3027
  186    3.700   2672.32     0.2017     0.0045     0.0959     0.0370     0.2420     2.2728    59.2000     0.1828     0.3219
  187    3.720   2673.27     0.2077     0.0047     0.0962     0.0372     0.2477     2.3032    59.5200     0.1882     0.3087
  188    3.740   2674.20     0.2146     0.0054     0.0948     0.0374     0.2557     2.5289    59.8400     0.1958     0.3081
  189    3.760   2675.21     0.2143     0.0052     0.0915     0.0376     0.2528     2.4553    60.1600     0.1927     0.2817
  190    3.780   2676.17     0.2210     0.0054     0.0879     0.0378     0.2587     2.4603    60.4800     0.1982     0.2616
  191    3.800   2677.12     0.2221     0.0059     0.0819     0.0380     0.2573     2.6170    60.8000     0.1965     0.2328
  192    3.820   2678.06     0.2221     0.0058     0.0791     0.0382     0.2555     2.6332    61.1200     0.1944     0.2125
  193    3.840   2679.03     0.2177     0.0056     0.0806     0.0384     0.2513     2.5763    61.4400     0.1899     0.2197
  194    3.860   2679.99     0.2165     0.0056     0.0844     0.0386     0.2516     2.5547    61.7600     0.1898     0.2374
  195    3.880   2680.94     0.2076     0.0052     0.0879     0.0388     0.2441     2.4404    62.0800     0.1820     0.2637
  196    3.900   2681.90     0.2018     0.0047     0.0922     0.0390     0.2399     2.3068    62.4000     0.1775     0.2912
  197    3.920   2682.87     0.1971     0.0044     0.0934     0.0392     0.2363     2.2114    62.7200     0.1736     0.3128
  198    3.940   2683.81     0.1855     0.0041     0.0950     0.0394     0.2249     2.1836    63.0400     0.1618     0.3362
  199    3.960   2684.75     0.1885     0.0045     0.1002     0.0396     0.2297     2.3775    63.3600     0.1664     0.3523
  200    3.980   2685.71     0.1889     0.0041     0.0999     0.0398     0.2314     2.2401    63.6800     0.1677     0.3660
  201    4.000   2686.66     0.2011     0.0041     0.1003     0.0400     0.2428     2.0806    64.0000     0.1788     0.3318
  202    4.020   2687.62     0.2051     0.0041     0.1033     0.0402     0.2480     2.0043    64.3200     0.1837     0.3380
  203    4.040   2688.58     0.2022     0.0041     0.1036     0.0404     0.2460     2.0544    64.6400     0.1814     0.3527
  204    4.060   2689.58     0.2006     0.0043     0.0974     0.0406     0.2425     2.1541    64.9600     0.1776     0.3333
  205    4.080   2690.51     0.2106     0.0046     0.0985     0.0408     0.2512     2.2549    65.2800     0.1860     0.3011
  206    4.100   2691.48     0.2330     0.0045     0.0932     0.0410     0.2735     1.9682    65.6000     0.2079     0.2664
  207    4.120   2692.47     0.2382     0.0042     0.0845     0.0412     0.2742     1.7549    65.9200     0.2083     0.2135
  208    4.140   2693.43     0.2303     0.0037     0.0905     0.0414     0.2674     1.6062    66.2400     0.2012     0.2335
  209    4.160   2694.39     0.2248     0.0041     0.0951     0.0416     0.2638     1.7744    66.5600     0.1973     0.2608
  210    4.180   2695.34     0.2136     0.0044     0.1011     0.0418     0.2554     2.0442    66.8800     0.1885     0.3057
  211    4.200   2696.31     0.2116     0.0044     0.1018     0.0420     0.2548     2.0678    67.2000     0.1876     0.3239
  212    4.220   2697.23     0.2091     0.0043     0.0962     0.0422     0.2494     2.0171    67.5200     0.1819     0.2950
  213    4.240   2698.18     0.1980     0.0043     0.0982     0.0424     0.2397     2.1497    67.8400     0.1719     0.3317
  214    4.260   2699.15     0.1960     0.0040     0.0948     0.0426     0.2357     1.9934    68.1600     0.1675     0.3094
  215    4.280   2700.14     0.1893     0.0038     0.0998     0.0428     0.2307     2.0294    68.4800     0.1622     0.3434
  216    4.300   2701.11     0.1831     0.0041     0.1045     0.0430     0.2263     2.2312    68.8000     0.1575     0.3801
  217    4.320   2702.07     0.1880     0.0041     0.1084     0.0432     0.2331     2.1920    69.1200     0.1640     0.3915
  218    4.340   2703.05     0.1885     0.0042     0.1098     0.0434     0.2345     2.2001    69.4400     0.1650     0.4006
  219    4.360   2703.99     0.1852     0.0044     0.1058     0.0436     0.2312     2.4107    69.7600     0.1615     0.4095
  220    4.380   2704.93     0.1873     0.0040     0.1038     0.0438     0.2309     2.1239    70.0800     0.1608     0.3724
  221    4.400   2705.90     0.1837     0.0038     0.1055     0.0440     0.2271     2.0616    70.4000     0.1567     0.3786
  222    4.420   2706.89     0.1813     0.0045     0.1106     0.0442     0.2268     2.4564    70.7200     0.1561     0.4113
  223    4.440   2707.85     0.1817     0.0044     0.1155     0.0444     0.2296     2.4074    71.0400     0.1586     0.4403
  224    4.460   2708.76     0.2053     0.0048     0.1169     0.0446     0.2543     2.4562    71.3600     0.1830     0.3949
  225    4.480   2709.71     0.2151     0.0043     0.0963     0.0448     0.2602     1.9709    71.6800     0.1885     0.3320
  226    4.500   2710.64     0.2360     0.0043     0.0991     0.0450     0.2756     1.7277    72.0000     0.2036     0.2437
  227    4.520   2711.61     0.2297     0.0049     0.0941     0.0452     0.2703     2.1216    72.3200     0.1980     0.2600
  228    4.540   2712.56     0.2125     0.0044     0.0975     0.0454     0.2530     2.0187    72.6400     0.1803     0.2821
  229    4.560   2713.54     0.1949     0.0046     0.1017     0.0456     0.2371     2.2837    72.9600     0.1642     0.3352
  230    4.580   2714.46     0.1931     0.0046     0.1022     0.0458     0.2354     2.3947    73.2800     0.1622     0.3386
  231    4.600   2715.45     0.1802     0.0038     0.1108     0.0460     0.2247     2.0877    73.6000     0.1511     0.3976
  232    4.620   2716.40     0.1798     0.0036     0.1177     0.0462     0.2282     1.9961    73.9200     0.1543     0.4482
  233    4.640   2717.37     0.1819     0.0038     0.1229     0.0464     0.2327     2.1320    74.2400     0.1585     0.4719
  234    4.660   2718.32     0.2082     0.0043     0.1279     0.0466     0.2617     2.1371    74.5600     0.1871     0.4319
  235    4.680   2719.29     0.2330     0.0043     0.1232     0.0468     0.2857     1.8708    74.8800     0.2108     0.3730
  236    4.700   2720.23     0.2415     0.0044     0.1109     0.0470     0.2908     1.8284    75.2000     0.2156     0.3265
  237    4.720   2721.19     0.2414     0.0049     0.0943     0.0472     0.2817     2.0246    75.5200     0.2061     0.2355
  238    4.740   2722.18     0.2332     0.0050     0.0940     0.0474     0.2727     2.1276    75.8400     0.1969     0.2375
  239    4.760   2723.15     0.2253     0.0051     0.0913     0.0476     0.2643     2.2306    76.1600     0.1881     0.2398
  240    4.780   2724.11     0.2118     0.0048     0.0898     0.0478     0.2494     2.2557    76.4800     0.1729     0.2417
  241    4.800   2725.04     0.2057     0.0045     0.0947     0.0480     0.2447     2.1959    76.8000     0.1679     0.2673
  242    4.820   2725.99     0.1937     0.0043     0.1017     0.0482     0.2357     2.1913    77.1200     0.1586     0.3275
  243    4.840   2737.87     0.1919     0.0041     0.1001     0.0484     0.2342     2.1406    77.4400     0.1568     0.3335
  244    4.860   2755.11     0.1939     0.0042     0.0985     0.0486     0.2355     2.1871    77.7600     0.1577     0.3199
  245    4.880   2766.18     0.1958     0.0040     0.0948     0.0488     0.2361     2.0356    78.0800     0.1580     0.2978
  246    4.900   2767.14     0.2079     0.0043     0.0922     0.0490     0.2473     2.0998    78.4000     0.1689     0.2657
  247    4.920   2768.11     0.2014     0.0041     0.0878     0.0492     0.2385     1.9306    78.7200     0.1598     0.2449
  248    4.940   2769.04     0.1906     0.0040     0.0900     0.0494     0.2279     2.0904    79.0400     0.1488     0.2633
  249    4.960   2770.00     0.1792     0.0040     0.0968     0.0496     0.2189     2.1526    79.3600     0.1395     0.3214
  250    4.980   2770.96     0.1765     0.0039     0.1036     0.0498     0.2190     2.2092    79.6800     0.1393     0.3691
  251    5.000   2771.91     0.1798     0.0035     0.1063     0.0500     0.2239     1.9188    80.0000     0.1439     0.3823
  252    5.020   2772.87     0.1877     0.0032     0.1133     0.0502     0.2344     1.7804    80.3200     0.1540     0.3954
  253    5.040   2773.83     0.1901     0.0032     0.1186     0.0504     0.2390     1.6668    80.6400     0.1583     0.4166
  254    5.060   2774.68     0.2000     0.0030     0.1192     0.0506     0.2503     1.5678    80.9600     0.1693     0.4090
  255    5.080   2775.52     0.2221     0.0031     0.1181     0.0508     0.2718     1.4605    81.2800     0.1905     0.3542
  256    5.100   2776.49     0.2321     0.0031     0.0952     0.0510     0.2764     1.3402    81.6000     0.1948     0.2791
  257    5.120   2777.48     0.2161     0.0032     0.0957     0.0512     0.2545     1.4080    81.9200     0.1725     0.2337
  258    5.140   2778.44     0.1926     0.0033     0.1047     0.0514     0.2355     1.6542    82.2400     0.1532     0.3312
  259    5.160   2779.39     0.1973     0.0035     0.1122     0.0516     0.2435     1.8155    82.5600     0.1609     0.3629
  260    5.180   2780.34     0.2099     0.0034     0.1166     0.0518     0.2581     1.6316    82.8800     0.1753     0.3590
  261    5.200   2781.31     0.2040     0.0033     0.1205     0.0520     0.2543     1.6063    83.2000     0.1711     0.3962
  262    5.220   2782.27     0.2047     0.0033     0.1197     0.0522     0.2554     1.6177    83.5200     0.1718     0.3981
  263    5.240   2783.22     0.2010     0.0032     0.1209     0.0524     0.2514     1.5949    83.8400     0.1675     0.4028
  264    5.260   2784.18     0.1968     0.0029     0.1248     0.0526     0.2486     1.4546    84.1600     0.1645     0.4308
  265    5.280   2785.18     0.2013     0.0027     0.1209     0.0528     0.2529     1.3361    84.4800     0.1684     0.4158
  266    5.300   2786.12     0.2006     0.0031     0.1158     0.0530     0.2499     1.5335    84.8000     0.1651     0.3901
  267    5.320   2786.95     0.1992     0.0033     0.1112     0.0532     0.2468     1.6164    85.1200     0.1617     0.3722
  268    5.340   2787.71     0.1849     0.0036     0.1110     0.0534     0.2313     1.9048    85.4400     0.1459     0.3919
  269    5.360   2788.51     0.1830     0.0044     0.1046     0.0536     0.2288     2.3900    85.7600     0.1431     0.3871
  270    5.380   2789.44     0.1922     0.0043     0.0990     0.0538     0.2344     2.2950    86.0800     0.1484     0.3160
  271    5.400   2790.40     0.2024     0.0042     0.0976     0.0540     0.2428     2.1089    86.4000     0.1564     0.2698
  272    5.420   2791.35     0.2141     0.0044     0.1022     0.0542     0.2562     2.0672    86.7200     0.1695     0.2712
  273    5.440   2792.31     0.2128     0.0046     0.1038     0.0544     0.2564     2.1740    87.0400     0.1694     0.2915
  274    5.460   2793.27     0.2043     0.0048     0.1083     0.0546     0.2487     2.3360    87.3600     0.1613     0.3166
  275    5.480   2794.27     0.1982     0.0046     0.1145     0.0548     0.2457     2.3077    87.6800     0.1581     0.3689
  276    5.500   2795.22     0.2000     0.0045     0.1180     0.0550     0.2490     2.2446    88.0000     0.1610     0.3835
  277    5.520   2796.18     0.1996     0.0048     0.1215     0.0552     0.2502     2.3470    88.3200     0.1618     0.4027
  278    5.540   2797.14     0.1901     0.0048     0.1226     0.0554     0.2417     2.4904    88.6400     0.1531     0.4408
  279    5.560   2798.09     0.1834     0.0047     0.1189     0.0556     0.2338     2.5575    88.9600     0.1448     0.4443
  280    5.580   2799.05     0.1822     0.0049     0.1221     0.0558     0.2329     2.6622    89.2800     0.1436     0.4525
  281    5.600   2800.00     0.1738     0.0049     0.1240     0.0560     0.2255     2.7501    89.6000     0.1359     0.4952
  282    5.620   2800.94     0.1703     0.0049     0.1253     0.0562     0.2226     2.8443    89.9200     0.1327     0.5161
  283    5.640   2801.90     0.1623     0.0039     0.1260     0.0564     0.2153     2.4016    90.2400     0.1251     0.5588
  284    5.660   2802.90     0.1632     0.0042     0.1318     0.0566     0.2179     2.5673    90.5600     0.1274     0.5796
  285    5.680   2803.86     0.1702     0.0040     0.1346     0.0568     0.2262     2.3424    90.8800     0.1354     0.5661
  286    5.700   2804.81     0.1830     0.0035     0.1327     0.0570     0.2392     1.9701    91.2000     0.1480     0.5201
  287    5.720   2805.82     0.1925     0.0032     0.1272     0.0572     0.2475     1.6835    91.5200     0.1560     0.4726
  288    5.740   2806.77     0.1943     0.0031     0.0950     0.0574     0.2322     1.6291    91.8400     0.1404     0.2334
  289    5.760   2807.74     0.1997     0.0035     0.1082     0.0576     0.2439     1.6700    92.1600     0.1518     0.3150
  290    5.780   2808.70     0.2006     0.0039     0.1104     0.0578     0.2467     1.9930    92.4800     0.1542     0.3362
  291    5.800   2809.66     0.1976     0.0039     0.1153     0.0580     0.2454     1.9826    92.8000     0.1526     0.3650
  292    5.820   2810.62     0.2032     0.0038     0.1183     0.0582     0.2525     1.8894    93.1200     0.1594     0.3720
  293    5.840   2811.57     0.2045     0.0038     0.1189     0.0584     0.2546     1.8767    93.4400     0.1611     0.3769
  294    5.860   2812.48     0.2027     0.0035     0.1194     0.0586     0.2521     1.6625    93.7600     0.1583     0.3735
  295    5.880   2813.44     0.1866     0.0035     0.1267     0.0588     0.2387     1.8548    94.0800     0.1446     0.4514
  296    5.900   2814.44     0.1863     0.0037     0.1254     0.0590     0.2391     2.0137    94.4000     0.1447     0.4615
  297    5.920   2815.40     0.1964     0.0040     0.1330     0.0592     0.2514     2.0781    94.7200     0.1566     0.4572
  298    5.940   2816.36     0.2122     0.0037     0.1304     0.0594     0.2689     1.7702    95.0400     0.1738     0.4345
  299    5.960   2817.27     0.2328     0.0041     0.1000     0.0596     0.2790     1.7864    95.3600     0.1836     0.2744
  300    5.980   2818.22     0.2365     0.0044     0.0976     0.0598     0.2763     1.8359    95.6800     0.1807     0.1941
  301    6.000   2819.18     0.2302     0.0049     0.1073     0.0600     0.2741     2.0903    96.0000     0.1781     0.2507
  302    6.020   2820.15     0.2312     0.0046     0.1160     0.0602     0.2785     1.9906    96.3200     0.1822     0.2883
  303    6.040   2821.11     0.2296     0.0044     0.1232     0.0604     0.2804     1.8828    96.6400     0.1837     0.3295
  304    6.060   2822.07     0.2268     0.0048     0.1287     0.0606     0.2802     2.0767    96.9600     0.1832     0.3634
  305    6.080   2823.03     0.2251     0.0055     0.1287     0.0608     0.2793     2.4586    97.2800     0.1820     0.3754
  306    6.100   2823.98     0.2216     0.0061     0.1333     0.0610     0.2765     2.7239    97.6000     0.1789     0.3895
  307    6.120   2824.94     0.2166     0.0060     0.1404     0.0612     0.2746     2.7053    97.9200     0.1767     0.4353
  308    6.140   2825.90     0.2170     0.0059     0.1453     0.0614     0.2775     2.6868    98.2400     0.1792     0.4607
  309    6.160   2826.85     0.2142     0.0059     0.1509     0.0616     0.2766     2.7250    98.5600     0.1780     0.4887
  310    6.180   2827.81     0.2215     0.0063     0.1496     0.0618     0.2861     2.8470    98.8800     0.1872     0.4912
  311    6.200   2828.76     0.2367     0.0062     0.1510     0.0620     0.2985     2.7153    99.2000     0.1993     0.4272
  312    6.220   2847.80     0.2695     0.0064     0.1378     0.0622     0.3293     2.6015    99.5200     0.2297     0.3624
  313    6.240   2874.17     0.3003     0.0062     0.1247     0.0624     0.3546     2.4958    99.8400     0.2547     0.2778
  314    6.260   2900.54     0.3311     0.0065     0.1153     0.0626     0.3799     2.0375   100.1600     0.2797     0.1931
  315    6.280   2903.42     0.3122     0.0062     0.1231     0.0628     0.3618     1.9804   100.4800     0.2613     0.2130
  316    6.300   2904.06     0.2900     0.0062     0.1355     0.0630     0.3452     2.1517   100.8000     0.2444     0.2798
  317    6.320   2904.70     0.2840     0.0055     0.1473     0.0632     0.3445     1.9143   101.1200     0.2434     0.3320
  318    6.340   2905.36     0.2860     0.0055     0.1542     0.0634     0.3499     1.9197   101.4400     0.2485     0.3579
  319    6.360   2906.00     0.2870     0.0053     0.1588     0.0636     0.3531     1.8566   101.7600     0.2514     0.3731
  320    6.380   2906.65     0.2913     0.0054     0.1625     0.0638     0.3591     1.8879   102.0800     0.2570     0.3797
  321    6.400   2907.28     0.3003     0.0058     0.1625     0.0640     0.3690     1.9938   102.4000     0.2666     0.3731
  322    6.420   2907.94     0.3080     0.0057     0.1581     0.0642     0.3752     1.9368   102.7200     0.2725     0.3518
  323    6.440   2908.59     0.2983     0.0055     0.1472     0.0644     0.3619     1.8798   103.0400     0.2589     0.3355
  324    6.460   2909.25     0.2894     0.0057     0.1449     0.0646     0.3497     1.9096   103.3600     0.2463     0.3204
  325    6.480   2909.91     0.2796     0.0062     0.1523     0.0648     0.3425     2.1674   103.6800     0.2388     0.3557
  326    6.500   2910.54     0.2757     0.0067     0.1575     0.0650     0.3412     2.3869   104.0000     0.2372     0.3838
  327    6.520   2920.69     0.2806     0.0073     0.1503     0.0652     0.3448     2.6463   104.3200     0.2405     0.3655
  328    6.540   2936.86     0.2869     0.0068     0.1426     0.0654     0.3479     2.4621   104.6400     0.2433     0.3291
  329    6.560   2953.04     0.2933     0.0067     0.1366     0.0656     0.3511     2.4331   104.9600     0.2461     0.2928
  330    6.580   2962.43     0.2736     0.0066     0.1545     0.0658     0.3366     2.7604   105.2800     0.2314     0.3658
  331    6.600   2968.68     0.2645     0.0056     0.1672     0.0660     0.3329     2.3376   105.6000     0.2273     0.4274
  332    6.620   2973.96     0.2552     0.0057     0.1778     0.0662     0.3286     2.2804   105.9200     0.2227     0.4876
  333    6.640   2974.91     0.2555     0.0045     0.1831     0.0664     0.3319     1.7571   106.2400     0.2257     0.5119
  334    6.660   2975.85     0.2492     0.0040     0.1868     0.0666     0.3272     1.5970   106.5600     0.2207     0.5403
  335    6.680   2976.81     0.2450     0.0037     0.1819     0.0668     0.3224     1.4890   106.8800     0.2155     0.5454
  336    6.700   2977.81     0.2437     0.0043     0.1872     0.0670     0.3211     1.7959   107.2000     0.2139     0.5482
  337    6.720   2978.77     0.2636     0.0046     0.1895     0.0672     0.3434     1.8178   107.5200     0.2359     0.5208
  338    6.740   2979.70     0.3181     0.0041     0.1577     0.0674     0.3888     1.3671   107.8400     0.2810     0.3598
  339    6.760   2980.69     0.3248     0.0043     0.1531     0.0676     0.3887     1.3827   108.1600     0.2806     0.3014
  340    6.780   2981.66     0.3219     0.0045     0.1557     0.0678     0.3870     1.3983   108.4800     0.2785     0.3128
  341    6.800   2982.65     0.3122     0.0041     0.1555     0.0680     0.3773     1.3145   108.8000     0.2685     0.3242
  342    6.820   2983.60     0.2900     0.0045     0.1626     0.0682     0.3569     1.5344   109.1200     0.2478     0.3682
  343    6.840   2984.54     0.2512     0.0041     0.1731     0.0684     0.3225     1.5277   109.4400     0.2131     0.4758
  344    6.860   2988.39     0.2449     0.0042     0.1784     0.0686     0.3190     1.6925   109.7600     0.2092     0.5158
  345    6.880   2993.28     0.2431     0.0042     0.1837     0.0688     0.3195     1.6969   110.0800     0.2094     0.5398
  346    6.900   2996.26     0.2420     0.0045     0.1836     0.0690     0.3197     1.8553   110.4000     0.2093     0.5542
  347    6.920   2997.23     0.2378     0.0052     0.1844     0.0692     0.3149     2.1813   110.7200     0.2042     0.5595
  348    6.940   2998.20     0.2338     0.0051     0.1836     0.0694     0.3113     2.1668   111.0400     0.2002     0.5746
  349    6.960   2999.18     0.2335     0.0053     0.1802     0.0696     0.3098     2.2460   111.3600     0.1984     0.5642
  350    6.980   3000.13     0.2320     0.0048     0.1823     0.0698     0.3078     2.0727   111.6800     0.1961     0.5644
  351    7.000   3001.09     0.2277     0.0047     0.1867     0.0700     0.3056     2.0755   112.0000     0.1936     0.5971
  352    7.020   3002.04     0.2270     0.0048     0.1896     0.0702     0.3061     2.0956   112.3200     0.1937     0.6095
  353    7.040   3003.03     0.2273     0.0049     0.1927     0.0704     0.3081     2.1550   112.6400     0.1955     0.6238
  354    7.060   3003.97     0.2393     0.0053     0.1948     0.0706     0.3212     2.3338   112.9600     0.2082     0.5997
  355    7.080   3004.95     0.2545     0.0051     0.1905     0.0708     0.3356     1.9880   113.2800     0.2223     0.5502
  356    7.100   3005.90     0.2536     0.0054     0.1882     0.0710     0.3333     2.1405   113.6000     0.2197     0.5406
  357    7.120   3006.82     0.2672     0.0052     0.1871     0.0712     0.3432     1.9429   113.9200     0.2292     0.4790
  358    7.140   3007.80     0.2408     0.0053     0.1930     0.0714     0.3211     2.1971   114.2400     0.2068     0.5791
  359    7.160   3008.81     0.2462     0.0051     0.1989     0.0716     0.3289     2.0575   114.5600     0.2144     0.5848
  360    7.180   3009.76     0.2446     0.0050     0.2022     0.0718     0.3293     2.0139   114.8800     0.2144     0.6049
  361    7.200   3010.76     0.2516     0.0049     0.2021     0.0720     0.3370     1.9473   115.2000     0.2218     0.5920
  362    7.220   3011.71     0.2574     0.0052     0.2034     0.0722     0.3429     2.0333   115.5200     0.2274     0.5774
  363    7.240   3012.66     0.2604     0.0051     0.2028     0.0724     0.3455     1.9282   115.8400     0.2296     0.5669
  364    7.260   3013.61     0.2489     0.0046     0.2030     0.0726     0.3346     1.8243   116.1600     0.2184     0.6022
  365    7.280   3014.60     0.2490     0.0045     0.1914     0.0728     0.3307     1.8057   116.4800     0.2142     0.5688
  366    7.300   3015.55     0.2467     0.0045     0.1973     0.0730     0.3282     1.8223   116.8000     0.2114     0.5733
  367    7.320   3016.48     0.2376     0.0046     0.2064     0.0732     0.3230     1.9035   117.1200     0.2059     0.6320
  368    7.340   3017.44     0.2332     0.0056     0.2115     0.0734     0.3214     2.3921   117.4400     0.2040     0.6703
  369    7.360   3018.40     0.2442     0.0053     0.2147     0.0736     0.3342     2.2532   117.7600     0.2164     0.6553
  370    7.380   3019.37     0.2916     0.0056     0.2122     0.0738     0.3814     1.9104   118.0800     0.2633     0.5311
  371    7.400   3020.38     0.2893     0.0052     0.2091     0.0740     0.3782     1.8045   118.4000     0.2598     0.5301
  372    7.420   3021.34     0.3025     0.0053     0.2067     0.0742     0.3887     1.7655   118.7200     0.2700     0.4853
  373    7.440   3022.28     0.3115     0.0053     0.2006     0.0744     0.3963     1.9116   119.0400     0.2773     0.4603
  374    7.460   3023.24     0.2670     0.0056     0.2092     0.0746     0.3533     1.9374   119.3600     0.2340     0.5606
  375    7.480   3024.18     0.2662     0.0054     0.2135     0.0748     0.3553     2.0279   119.6800     0.2356     0.5826
  376    7.500   3025.15     0.2599     0.0054     0.2184     0.0750     0.3510     2.0780   120.0000     0.2310     0.6145
  377    7.520   3026.09     0.2639     0.0056     0.2237     0.0752     0.3572     2.1536   120.3200     0.2369     0.6206
  378    7.540   3027.07     0.2774     0.0060     0.2257     0.0754     0.3714     2.1827   120.6400     0.2508     0.5919
  379    7.560   3028.07     0.2853     0.0059     0.2278     0.0756     0.3810     2.0702   120.9600     0.2600     0.5849
  380    7.580   3029.03     0.2876     0.0060     0.2210     0.0758     0.3820     2.0890   121.2800     0.2607     0.5709
  381    7.600   3030.00     0.2882     0.0061     0.2239     0.0760     0.3813     2.0978   121.6000     0.2597     0.5609
  382    7.620   3030.95     0.2901     0.0047     0.2270     0.0762     0.3850     1.6169   121.9200     0.2631     0.5690
  383    7.640   3031.95     0.2899     0.0038     0.2371     0.0764     0.3878     1.2993   122.2400     0.2656     0.5898
  384    7.660   3032.91     0.2958     0.0036     0.2476     0.0766     0.3981     1.2419   122.5600     0.2756     0.6068
  385    7.680   3033.89     0.3257     0.0042     0.2537     0.0768     0.4317     1.3314   122.8800     0.3089     0.5694
  386    7.700   3034.82     0.3498     0.0049     0.2455     0.0770     0.4569     1.4197   123.2000     0.3337     0.5339
  387    7.720   3035.82     0.5011     0.0056     0.2128     0.0772     0.5986     1.2757   123.5200     0.4751     0.3265
  388    7.740   3036.78     0.5772     0.0058     0.1858     0.0774     0.6606     1.0321   123.8400     0.5368     0.2259
  389    7.760   3037.74     0.6007     0.0063     0.1689     0.0776     0.6712     1.0370   124.1600     0.5471     0.1650
  390    7.780   3038.69     0.5862     0.0052     0.1860     0.0778     0.6618     0.8825   124.4800     0.5373     0.1903
  391    7.800   3039.65     0.5670     0.0045     0.1999     0.0780     0.6491     0.7878   124.8000     0.5243     0.2240
  392    7.820   3040.60     0.5934     0.0035     0.2093     0.0782     0.6802     0.6217   125.1200     0.5551     0.2319
  393    7.840   3041.59     0.6924     0.0035     0.2127     0.0784     0.7816     0.5209   125.4400     0.6562     0.2042
  394    7.860   3042.56     0.7896     0.0029     0.2118     0.0786     0.8785     0.3903   125.7600     0.7528     0.1779
  395    7.880   3043.51     1.3069     0.0028     0.1967     0.0788     1.3935     0.2716   126.0800     1.2674     0.1054
  396    7.900   3044.50     2.7495     0.0050     0.1327     0.0790     2.8153     0.2268   126.4000     2.6889     0.0310
  397    7.920   3045.47     4.8071     0.0087     0.0536     0.0792     4.8355     0.2049   126.7200     4.7088    -0.0022
  398    7.940   3046.46     6.5088     0.0135     0.0251     0.0794     6.5215     0.2191   127.0400     6.3945    -0.0076
  399    7.960   3047.42     7.3041     0.0180     0.0361     0.0796     7.3177     0.2519   127.3600     7.1904    -0.0066
  400    7.980   3048.41     7.5958     0.0251     0.0389     0.0798     7.6116     0.3328   127.6800     7.4839    -0.0057
  401    8.000   3049.34     7.5721     0.0314     0.0425     0.0800     7.5892     0.4128   128.0000     7.4612    -0.0053
  402    8.020   3050.30     7.3858     0.0345     0.0477     0.0802     7.4047     0.4628   128.3200     7.2764    -0.0048
  403    8.040   3051.30     7.0880     0.0367     0.0495     0.0804     7.1081     0.5129   128.6400     6.9794    -0.0047
  404    8.060   3052.26     6.8499     0.0374     0.0532     0.0806     6.8715     0.5419   128.9600     6.7426    -0.0043
  405    8.080   3053.24     6.7179     0.0364     0.0563     0.0808     6.7414     0.5404   129.2800     6.6121    -0.0038
  406    8.100   3054.24     6.6000     0.0347     0.0597     0.0810     6.6248     0.5228   129.6000     6.4952    -0.0034
  407    8.120   3055.20     6.4238     0.0341     0.0625     0.0812     6.4495     0.5266   129.9200     6.3196    -0.0032
  408    8.140   3056.20     6.1404     0.0337     0.0652     0.0814     6.1674     0.5397   130.2400     6.0372    -0.0028
  409    8.160   3057.18     5.6662     0.0330     0.0659     0.0816     5.6939     0.5664   130.5600     5.5633    -0.0028
  410    8.180   3058.15     5.0892     0.0327     0.0652     0.0818     5.1167     0.6231   130.8800     4.9858    -0.0033
  411    8.200   3059.09     4.4889     0.0331     0.0658     0.0820     4.5164     0.7039   131.2000     4.3852    -0.0038
  412    8.220   3060.05     3.9136     0.0333     0.0665     0.0822     3.9416     0.8102   131.5200     3.8101    -0.0041
  413    8.240   3061.01     3.3313     0.0347     0.0663     0.0824     3.3592     0.9845   131.8400     3.2274    -0.0049
  414    8.260   3061.97     2.7837     0.0364     0.0674     0.0826     2.8118     1.2397   132.1600     2.6796    -0.0059
  415    8.280   3062.96     2.3310     0.0362     0.0699     0.0828     2.3598     1.4768   132.4800     2.2273    -0.0063
  416    8.300   3063.91     1.9969     0.0352     0.0751     0.0830     2.0275     1.6899   132.8000     1.8947    -0.0053
  417    8.320   3064.85     1.7271     0.0323     0.0836     0.0832     1.7610     1.7943   133.1200     1.6278    -0.0015
  418    8.340   3065.84     1.5500     0.0301     0.0932     0.0834     1.5876     1.8878   133.4400     1.4541     0.0042
  419    8.360   3066.79     1.4418     0.0287     0.1013     0.0836     1.4832     1.9538   133.7600     1.3495     0.0111
  420    8.380   3067.80     1.2490     0.0248     0.1099     0.0838     1.2929     1.8880   134.0800     1.1588     0.0180
  421    8.400   3068.75     1.0684     0.0205     0.1259     0.0840     1.1191     1.8397   134.4000     0.9847     0.0372
  422    8.420   3069.71     0.9538     0.0167     0.1405     0.0842     1.0108     1.7034   134.7200     0.8761     0.0589
  423    8.440   3070.69     0.8603     0.0136     0.1518     0.0844     0.9230     1.5281   135.0400     0.7879     0.0823
  424    8.460   3071.70     0.7886     0.0102     0.1535     0.0846     0.8530     1.2700   135.3600     0.7176     0.0958
  425    8.480   3072.63     0.7322     0.0074     0.1579     0.0848     0.7975     0.9748   135.6800     0.6619     0.1069
  426    8.500   3073.61     0.6699     0.0062     0.1716     0.0850     0.7397     0.8962   136.0000     0.6037     0.1347
  427    8.520   3074.57     0.6002     0.0058     0.1841     0.0852     0.6759     0.9341   136.3200     0.5396     0.1764
  428    8.540   3075.51     0.5576     0.0048     0.1923     0.0854     0.6372     0.8461   136.6400     0.5006     0.2081
  429    8.560   3076.49     0.5324     0.0049     0.2007     0.0856     0.6157     0.9145   136.9600     0.4788     0.2358
  430    8.580   3077.45     0.4967     0.0053     0.1923     0.0858     0.5784     1.0503   137.2800     0.4411     0.2464
  431    8.600   3078.46     0.4518     0.0053     0.1995     0.0860     0.5346     1.1453   137.6000     0.3970     0.2802
  432    8.620   3079.42     0.4199     0.0048     0.2137     0.0862     0.5070     1.1201   137.9200     0.3691     0.3285
  433    8.640   3080.37     0.4129     0.0044     0.2220     0.0864     0.5048     1.0626   138.2400     0.3665     0.3610
  434    8.660   3081.33     0.4051     0.0046     0.2318     0.0866     0.5007     1.1268   138.5600     0.3622     0.3897
  435    8.680   3082.32     0.3914     0.0049     0.2423     0.0868     0.4925     1.2419   138.8800     0.3536     0.4354
  436    8.700   3083.28     0.4077     0.0058     0.2486     0.0870     0.5116     1.4553   139.2000     0.3724     0.4305
  437    8.720   3084.23     0.4954     0.0059     0.2435     0.0872     0.5992     1.2604   139.5200     0.4597     0.3484
  438    8.740   3085.19     0.5633     0.0058     0.2232     0.0874     0.6609     1.0718   139.8400     0.5211     0.2788
  439    8.760   3086.21     0.5768     0.0058     0.2069     0.0876     0.6646     0.9974   140.1600     0.5244     0.2315
  440    8.780   3087.16     0.5192     0.0061     0.2088     0.0878     0.6063     1.1165   140.4800     0.4659     0.2570
  441    8.800   3088.14     0.4404     0.0070     0.2147     0.0880     0.5293     1.4838   140.8000     0.3885     0.3189
  442    8.820   3089.11     0.4008     0.0077     0.2262     0.0882     0.4943     1.8465   141.1200     0.3532     0.3809
  443    8.840   3090.02     0.3968     0.0071     0.2337     0.0884     0.4938     1.7977   141.4400     0.3524     0.4049
  444    8.860   3091.03     0.3949     0.0075     0.2392     0.0886     0.4947     1.8854   141.7600     0.3530     0.4221
  445    8.880   3092.00     0.3907     0.0067     0.2421     0.0888     0.4923     1.6944   142.0800     0.3502     0.4370
  446    8.900   3100.01     0.3888     0.0067     0.2427     0.0890     0.4906     1.6916   142.4000     0.3482     0.4412
  447    8.920   3115.06     0.3755     0.0063     0.2435     0.0892     0.4776     1.5943   142.7200     0.3349     0.4605
  448    8.940   3123.27     0.3655     0.0066     0.2501     0.0894     0.4699     1.7988   143.0400     0.3269     0.4869
  449    8.960   3124.18     0.3538     0.0063     0.2495     0.0896     0.4589     1.7659   143.3600     0.3155     0.5088
  450    8.980   3125.14     0.3484     0.0070     0.2521     0.0898     0.4535     2.0027   143.6800     0.3098     0.5178
  451    9.000   3126.12     0.3431     0.0071     0.2583     0.0900     0.4510     2.0652   144.0000     0.3070     0.5438
  452    9.020   3127.11     0.3407     0.0065     0.2576     0.0902     0.4491     1.9270   144.3200     0.3048     0.5507
  453    9.040   3128.08     0.3364     0.0063     0.2612     0.0904     0.4454     1.8720   144.6400     0.3008     0.5623
  454    9.060   3129.03     0.3324     0.0065     0.2659     0.0906     0.4433     1.9737   144.9600     0.2983     0.5813
  455    9.080   3129.99     0.3349     0.0069     0.2721     0.0908     0.4484     2.0757   145.2800     0.3031     0.5913
  456    9.100   3130.97     0.3470     0.0071     0.2748     0.0910     0.4621     2.0575   145.6000     0.3165     0.5780
  457    9.120   3131.93     0.3567     0.0067     0.2711     0.0912     0.4709     1.8763   145.9200     0.3250     0.5564
  458    9.140   3132.90     0.3568     0.0069     0.2544     0.0914     0.4648     1.9250   146.2400     0.3186     0.5206
  459    9.160   3133.87     0.3520     0.0066     0.2535     0.0916     0.4584     1.8753   146.5600     0.3118     0.5183
  460    9.180   3134.81     0.3376     0.0069     0.2598     0.0918     0.4459     2.0192   146.8800     0.2990     0.5550
  461    9.200   3135.80     0.3361     0.0067     0.2611     0.0920     0.4454     1.9851   147.2000     0.2982     0.5644
  462    9.220   3136.75     0.3391     0.0068     0.2635     0.0922     0.4495     2.0163   147.5200     0.3020     0.5652
  463    9.240   3137.71     0.3365     0.0065     0.2596     0.0924     0.4461     1.9173   147.8400     0.2983     0.5652
  464    9.260   3138.73     0.3360     0.0068     0.2571     0.0926     0.4449     2.0151   148.1600     0.2967     0.5621
  465    9.280   3139.69     0.3216     0.0069     0.2534     0.0928     0.4277     2.0874   148.4800     0.2792     0.5725
  466    9.300   3140.63     0.3196     0.0069     0.2582     0.0930     0.4274     2.1509   148.8000     0.2786     0.5874
  467    9.320   3141.58     0.3119     0.0073     0.2626     0.0932     0.4216     2.3145   149.1200     0.2725     0.6168
  468    9.340   3142.54     0.3139     0.0072     0.2597     0.0934     0.4238     2.3254   149.4400     0.2743     0.6135
  469    9.360   3143.51     0.3237     0.0077     0.2638     0.0936     0.4336     2.3887   149.7600     0.2838     0.5920
  470    9.380   3144.46     0.3284     0.0078     0.2704     0.0938     0.4410     2.3911   150.0800     0.2909     0.5990
  471    9.400   3145.41     0.3366     0.0073     0.2735     0.0940     0.4512     2.1936   150.4000     0.3008     0.5946
  472    9.420   3146.36     0.3361     0.0073     0.2638     0.0942     0.4489     2.1558   150.7200     0.2982     0.5846
  473    9.440   3147.36     0.3379     0.0076     0.2628     0.0944     0.4482     2.2652   151.0400     0.2972     0.5663
  474    9.460   3148.31     0.3313     0.0076     0.2602     0.0946     0.4414     2.2865   151.3600     0.2900     0.5773
  475    9.480   3149.31     0.3241     0.0082     0.2605     0.0948     0.4334     2.5345   151.6800     0.2817     0.5868
  476    9.500   3150.33     0.3557     0.0088     0.2542     0.0950     0.4645     2.6075   152.0000     0.3125     0.5254
  477    9.520   3151.29     0.4190     0.0097     0.2460     0.0952     0.5232     2.3653   152.3200     0.3708     0.4125
  478    9.540   3152.23     0.4400     0.0094     0.2345     0.0954     0.5411     2.1277   152.6400     0.3884     0.3739
  479    9.560   3153.19     0.4182     0.0095     0.2345     0.0956     0.5153     2.2325   152.9600     0.3624     0.3747
  480    9.580   3154.15     0.3954     0.0094     0.2439     0.0958     0.4966     2.3004   153.2800     0.3433     0.4232
  481    9.600   3155.15     0.3657     0.0098     0.2486     0.0960     0.4694     2.6239   153.6000     0.3158     0.4777
  482    9.620   3156.13     0.3421     0.0095     0.2580     0.0962     0.4492     2.6921   153.9200     0.2953     0.5383
  483    9.640   3157.06     0.3283     0.0092     0.2636     0.0964     0.4383     2.8080   154.2400     0.2840     0.5826
  484    9.660   3158.05     0.3265     0.0084     0.2664     0.0966     0.4381     2.5608   154.5600     0.2835     0.5962
  485    9.680   3159.00     0.3241     0.0080     0.2712     0.0968     0.4373     2.4591   154.8800     0.2825     0.6122
  486    9.700   3159.95     0.3178     0.0085     0.2754     0.0970     0.4329     2.6535   155.2000     0.2777     0.6377
  487    9.720   3160.95     0.3148     0.0086     0.2761     0.0972     0.4311     2.7069   155.5200     0.2756     0.6522
  488    9.740   3161.93     0.3080     0.0084     0.2776     0.0974     0.4245     2.7213   155.8400     0.2686     0.6698
  489    9.760   3162.89     0.3126     0.0084     0.2791     0.0976     0.4295     2.7189   156.1600     0.2733     0.6612
  490    9.780   3163.88     0.3128     0.0081     0.2812     0.0978     0.4310     2.6005   156.4800     0.2745     0.6687
  491    9.800   3164.83     0.3149     0.0081     0.2823     0.0980     0.4330     2.5333   156.8000     0.2762     0.6628
  492    9.820   3165.79     0.3192     0.0086     0.2809     0.0982     0.4378     2.6817   157.1200     0.2807     0.6567
  493    9.840   3166.73     0.3154     0.0079     0.2785     0.0984     0.4323     2.5029   157.4400     0.2748     0.6546
  494    9.860   3167.69     0.3150     0.0081     0.2785     0.0986     0.4323     2.5667   157.7600     0.2745     0.6582
  495    9.880   3168.65     0.3256     0.0084     0.2781     0.0988     0.4422     2.6277   158.0800     0.2841     0.6295
  496    9.900   3169.66     0.3272     0.0080     0.2845     0.0990     0.4456     2.4605   158.4000     0.2872     0.6366
  497    9.920   3170.65     0.3317     0.0075     0.2918     0.0992     0.4533     2.2805   158.7200     0.2946     0.6457
  498    9.940   3171.61     0.3415     0.0078     0.2952     0.0994     0.4651     2.3259   159.0400     0.3060     0.6371
  499    9.960   3172.56     0.3457     0.0073     0.2983     0.0996     0.4707     2.1151   159.3600     0.3114     0.6360
  500    9.980   3173.47     0.3458     0.0079     0.2984     0.0998     0.4713     2.2726   159.6800     0.3116     0.6384
  501   10.000   3174.43     0.3506     0.0080     0.2979     0.1000     0.4758     2.2931   160.0000     0.3158     0.6271
  502   10.020   3175.38     0.3755     0.0080     0.2889     0.1002     0.4978     2.1516   160.3200     0.3375     0.5657
  503   10.040   3176.37     0.3680     0.0086     0.2864     0.1004     0.4919     2.3385   160.6400     0.3313     0.5880
  504   10.060   3177.31     0.3673     0.0086     0.2698     0.1006     0.4771     2.2723   160.9600     0.3161     0.5089
  505   10.080   3178.30     0.3521     0.0086     0.2751     0.1008     0.4667     2.4200   161.2800     0.3054     0.5634
  506   10.100   3179.25     0.3508     0.0087     0.2814     0.1010     0.4684     2.5032   161.6000     0.3068     0.5833
  507   10.120   3180.25     0.3499     0.0088     0.2837     0.1012     0.4685     2.5018   161.9200     0.3066     0.5908
  508   10.140   3181.25     0.3434     0.0087     0.2888     0.1014     0.4640     2.4917   162.2400     0.3018     0.6159
  509   10.160   3182.24     0.3473     0.0089     0.2927     0.1016     0.4696     2.5599   162.5600     0.3071     0.6177
  510   10.180   3183.15     0.3454     0.0088     0.2985     0.1018     0.4698     2.5554   162.8800     0.3069     0.6333
  511   10.200   3184.10     0.3509     0.0089     0.3027     0.1020     0.4777     2.5206   163.2000     0.3145     0.6357
  512   10.220   3185.05     0.3559     0.0086     0.3052     0.1022     0.4836     2.4140   163.5200     0.3201     0.6306
  513   10.240   3186.06     0.3577     0.0092     0.3067     0.1024     0.4865     2.5752   163.8400     0.3226     0.6332
  514   10.260   3187.02     0.3552     0.0091     0.3070     0.1026     0.4841     2.5587   164.1600     0.3199     0.6386
  515   10.280   3187.97     0.3570     0.0093     0.3053     0.1028     0.4854     2.6037   164.4800     0.3210     0.6324
  516   10.300   3188.92     0.3556     0.0089     0.3042     0.1030     0.4837     2.5200   164.8000     0.3189     0.6334
  517   10.320   3189.91     0.3599     0.0089     0.3024     0.1032     0.4868     2.4868   165.1200     0.3216     0.6184
  518   10.340   3190.93     0.3520     0.0089     0.3050     0.1034     0.4800     2.5201   165.4400     0.3146     0.6401
  519   10.360   3191.86     0.3550     0.0088     0.3043     0.1036     0.4833     2.4893   165.7600     0.3176     0.6357
  520   10.380   3192.80     0.3579     0.0088     0.3055     0.1038     0.4862     2.4615   166.0800     0.3202     0.6302
  521   10.400   3193.80     0.3573     0.0089     0.3063     0.1040     0.4857     2.4688   166.4000     0.3193     0.6318
  522   10.420   3194.80     0.3542     0.0092     0.3073     0.1042     0.4832     2.5845   166.7200     0.3165     0.6414
  523   10.440   3195.79     0.3642     0.0093     0.3070     0.1044     0.4928     2.5801   167.0400     0.3257     0.6197
  524   10.460   3196.68     0.3678     0.0095     0.3097     0.1046     0.4977     2.6016   167.3600     0.3304     0.6202
  525   10.480   3197.63     0.3681     0.0095     0.3104     0.1048     0.4983     2.5832   167.6800     0.3306     0.6203
  526   10.500   3198.62     0.3694     0.0092     0.3143     0.1050     0.5007     2.4773   168.0000     0.3327     0.6246
  527   10.520   3199.60     0.3754     0.0095     0.3185     0.1052     0.5082     2.5283   168.3200     0.3399     0.6211
  528   10.540   3200.58     0.3818     0.0099     0.3254     0.1054     0.5176     2.6128   168.6400     0.3490     0.6250
  529   10.560   3201.54     0.4032     0.0093     0.3327     0.1056     0.5418     2.3361   168.9600     0.3728     0.6016
  530   10.580   3202.55     0.4162     0.0089     0.3395     0.1058     0.5586     2.1439   169.2800     0.3893     0.5989
  531   10.600   3203.51     0.4164     0.0085     0.3335     0.1060     0.5573     2.0115   169.6000     0.3877     0.5916
  532   10.620   3204.54     0.4130     0.0077     0.3347     0.1062     0.5541     1.8648   169.9200     0.3842     0.5979
  533   10.640   3205.48     0.4179     0.0094     0.3384     0.1064     0.5585     2.2635   170.2400     0.3882     0.5877
  534   10.660   3206.43     0.4350     0.0103     0.3310     0.1066     0.5767     2.4082   170.5600     0.4061     0.5682
  535   10.680   3207.42     0.4996     0.0089     0.3255     0.1068     0.6356     1.8880   170.8800     0.4647     0.4679
  536   10.700   3208.41     0.6365     0.0074     0.3015     0.1070     0.7681     1.2702   171.2000     0.5969     0.3470
  537   10.720   3209.37     0.7475     0.0072     0.2511     0.1072     0.8613     1.0023   171.5200     0.6897     0.2373
  538   10.740   3210.33     0.7507     0.0087     0.2362     0.1074     0.8500     1.1461   171.8400     0.6782     0.1903
  539   10.760   3211.27     0.7199     0.0104     0.2485     0.1076     0.8221     1.4210   172.1600     0.6499     0.2087
  540   10.780   3212.23     0.6586     0.0099     0.2688     0.1078     0.7699     1.4636   172.4800     0.5974     0.2630
  541   10.800   3213.22     0.6655     0.0100     0.2645     0.1080     0.7810     1.5106   172.8000     0.6082     0.2744
  542   10.820   3214.14     0.7078     0.0097     0.2307     0.1082     0.8084     1.3956   173.1200     0.6353     0.2072
  543   10.840   3215.10     0.7283     0.0085     0.2040     0.1084     0.8178     1.1588   173.4400     0.6444     0.1627
  544   10.860   3216.08     0.7173     0.0082     0.2034     0.1086     0.8012     1.1459   173.7600     0.6274     0.1452
  545   10.880   3217.08     0.7007     0.0079     0.2164     0.1088     0.7901     1.1330   174.0800     0.6160     0.1691
  546   10.900   3218.04     0.6492     0.0079     0.2265     0.1090     0.7428     1.1765   174.4000     0.5684     0.2006
  547   10.920   3219.00     0.5993     0.0086     0.2395     0.1092     0.6980     1.3787   174.7200     0.5233     0.2410
  548   10.940   3219.98     0.5194     0.0081     0.2561     0.1094     0.6242     1.4863   175.0400     0.4492     0.3128
  549   10.960   3226.44     0.5003     0.0079     0.2630     0.1096     0.6099     1.6162   175.3600     0.4345     0.3481
  550   10.980   3236.25     0.5194     0.0086     0.2693     0.1098     0.6316     1.7681   175.6800     0.4559     0.3453
  551   11.000   3245.81     0.5384     0.0083     0.2762     0.1100     0.6533     1.6255   176.0000     0.4773     0.3426
  552   11.020   3246.80     0.5590     0.0077     0.2960     0.1102     0.6803     1.3988   176.3200     0.5040     0.3548
  553   11.040   3247.77     0.5594     0.0080     0.3091     0.1104     0.6878     1.4396   176.6400     0.5111     0.3819
  554   11.060   3248.71     0.5202     0.0087     0.3207     0.1106     0.6534     1.6283   176.9600     0.4764     0.4334
  555   11.080   3249.70     0.5615     0.0096     0.3282     0.1108     0.6986     1.7645   177.2800     0.5213     0.4138
  556   11.100   3250.67     0.6218     0.0102     0.3312     0.1110     0.7611     1.6865   177.6000     0.5835     0.3785
  557   11.120   3251.65     0.6883     0.0109     0.3093     0.1112     0.8206     1.6174   177.9200     0.6426     0.3174
  558   11.140   3252.59     0.6993     0.0114     0.3113     0.1114     0.8299     1.6694   178.2400     0.6517     0.3065
  559   11.160   3253.56     0.7728     0.0119     0.3129     0.1116     0.9046     1.6084   178.5600     0.7260     0.2791
  560   11.180   3254.53     0.8927     0.0118     0.2859     0.1118     1.0187     1.3855   178.8800     0.8398     0.2246
  561   11.200   3255.51     1.0056     0.0117     0.2594     0.1120     1.1179     1.2063   179.2000     0.9387     0.1658
  562   11.220   3256.50     1.0590     0.0125     0.2428     0.1122     1.1621     1.1863   179.5200     0.9826     0.1356
  563   11.240   3257.44     1.0510     0.0121     0.2376     0.1124     1.1527     1.1435   179.8400     0.9729     0.1333
  564   11.260   3258.39     1.0383     0.0125     0.2331     0.1126     1.1370     1.2107   180.1600     0.9569     0.1280
  565   11.280   3259.37     1.0395     0.0118     0.2332     0.1128     1.1382     1.1367   180.4800     0.9577     0.1275
  566   11.300   3260.29     1.0535     0.0113     0.2315     0.1130     1.1510     1.0722   180.8000     0.9702     0.1230
  567   11.320   3261.27     1.0626     0.0100     0.2319     0.1132     1.1590     0.9619   181.1200     0.9778     0.1188
  568   11.340   3262.21     1.1298     0.0104     0.2377     0.1134     1.2294     0.9411   181.4400     1.0480     0.1182
  569   11.360   3263.20     1.2545     0.0105     0.2144     0.1136     1.3478     0.8621   181.7600     1.1661     0.0933
  570   11.380   3264.19     1.3541     0.0089     0.1783     0.1138     1.4323     0.6683   182.0800     1.2503     0.0580
  571   11.400   3265.12     1.5099     0.0083     0.1864     0.1140     1.5858     0.5761   182.4000     1.4034     0.0476
  572   11.420   3266.11     1.7481     0.0072     0.2019     0.1142     1.8325     0.4365   182.7200     1.6498     0.0527
  573   11.440   3267.04     2.1551     0.0061     0.1633     0.1144     2.2312     0.3072   183.0400     2.0482     0.0331
  574   11.460   3268.01     2.5787     0.0062     0.1240     0.1146     2.6384     0.2523   183.3600     2.4550     0.0114
  575   11.480   3268.97     2.7954     0.0070     0.1056     0.1148     2.8386     0.2548   183.6800     2.6549    -0.0046
  576   11.500   3269.91     2.8641     0.0092     0.1030     0.1150     2.9080     0.3238   184.0000     2.7240    -0.0038
  577   11.520   3270.91     2.8666     0.0124     0.0839     0.1152     2.9049     0.4315   184.3200     2.7206    -0.0088
  578   11.540   3271.84     2.7450     0.0143     0.0865     0.1154     2.7804     0.5113   184.6400     2.5957    -0.0120
  579   11.560   3272.82     2.5692     0.0145     0.0990     0.1156     2.6092     0.5500   184.9600     2.4243    -0.0083
  580   11.580   3273.78     2.4876     0.0112     0.1154     0.1158     2.5348     0.4496   185.2800     2.3495    -0.0015
  581   11.600   3274.78     2.6086     0.0093     0.1185     0.1160     2.6599     0.3688   185.6000     2.4743     0.0025
  582   11.620   3275.73     2.9293     0.0114     0.0744     0.1162     2.9664     0.4036   185.9200     2.7805    -0.0099
  583   11.640   3276.67     3.2948     0.0139     0.0312     0.1164     3.3156     0.4372   186.2400     3.1294    -0.0213
  584   11.660   3277.63     3.6188     0.0138    -0.0131     0.1166     3.6181     0.3909   186.5600     3.4316    -0.0344
  585   11.680   3278.63     3.7788     0.0143    -0.0201     0.1168     3.7696     0.3818   186.8800     3.5827    -0.0387
  586   11.700   3279.59     3.9036     0.0144    -0.0128     0.1170     3.8969     0.3728   187.2000     3.7097    -0.0359
  587   11.720   3280.55     4.0703     0.0138    -0.0320     0.1172     4.0600     0.3417   187.5200     3.8725    -0.0366
  588   11.740   3281.53     4.2739     0.0124    -0.0582     0.1174     4.2536     0.2941   187.8400     4.0658    -0.0407
  589   11.760   3282.50     4.4716     0.0110    -0.0624     0.1176     4.4454     0.2496   188.1600     4.2572    -0.0423
  590   11.780   3283.45     4.6345     0.0086    -0.0606     0.1178     4.6070     0.1871   188.4800     4.4185    -0.0415
  591   11.800   3284.44     4.7241     0.0065    -0.0660     0.1180     4.6972     0.1372   188.8000     4.5084    -0.0404
  592   11.820   3285.43     4.7329     0.0082    -0.0612     0.1182     4.7057     0.1726   189.1200     4.5166    -0.0405
  593   11.840   3286.38     4.6875     0.0109    -0.0757     0.1184     4.6563     0.2300   189.4400     4.4669    -0.0432
  594   11.860   3287.36     4.5075     0.0126    -0.0733     0.1186     4.4750     0.2749   189.7600     4.2853    -0.0457
  595   11.880   3288.31     4.3833     0.0160    -0.0708     0.1188     4.3548     0.3611   190.0800     4.1647    -0.0448
  596   11.900   3289.32     4.1962     0.0208    -0.0557     0.1190     4.1694     0.4888   190.4000     3.9790    -0.0459
  597   11.920   3290.22     3.9109     0.0250    -0.0528     0.1192     3.8879     0.6263   190.7200     3.6972    -0.0471
  598   11.940   3291.21     3.5870     0.0229    -0.0492     0.1194     3.5674     0.6222   191.0400     3.3763    -0.0493
  599   11.960   3292.14     3.2529     0.0258    -0.0490     0.1196     3.2311     0.7725   191.3600     3.0397    -0.0565
  600   11.980   3293.09     3.0621     0.0232    -0.0412     0.1198     3.0440     0.7495   191.6800     2.8523    -0.0571
  601   12.000   3294.09     2.9784     0.0237    -0.0182     0.1200     2.9673     0.7969   192.0000     2.7753    -0.0528
  602   12.020   3295.03     3.1067     0.0248    -0.0387     0.1202     3.0954     0.8124   192.3200     2.9031    -0.0506
  603   12.040   3296.00     3.3591     0.0245    -0.0514     0.1204     3.3378     0.7479   192.6400     3.1452    -0.0544
  604   12.060   3296.98     3.5790     0.0193    -0.0452     0.1206     3.5585     0.5488   192.9600     3.3655    -0.0504
  605   12.080   3297.97     3.6774     0.0182    -0.0497     0.1208     3.6579     0.4960   193.2800     3.4647    -0.0482
  606   12.100   3298.95     3.6109     0.0265    -0.0617     0.1210     3.5866     0.7272   193.6000     3.3930    -0.0528
  607   12.120   3299.90     3.4878     0.0290    -0.0763     0.1212     3.4573     0.8169   193.9200     3.2634    -0.0594
  608   12.140   3300.85     3.2751     0.0248    -0.0829     0.1214     3.2414     0.7414   194.2400     3.0472    -0.0661
  609   12.160   3301.80     3.2107     0.0229    -0.0791     0.1216     3.1749     0.7131   194.5600     2.9803    -0.0694
  610   12.180   3302.75     3.1935     0.0204    -0.0616     0.1218     3.1654     0.6429   194.8800     2.9705    -0.0635
  611   12.200   3303.73     3.4270     0.0184    -0.0610     0.1220     3.4036     0.5488   195.2000     3.2084    -0.0554
  612   12.220   3304.68     3.6872     0.0157    -0.0957     0.1222     3.6500     0.4320   195.5200     3.4545    -0.0610
  613   12.240   3305.66     3.7450     0.0133    -0.0941     0.1224     3.7047     0.3560   195.8400     3.5088    -0.0623
  614   12.260   3306.66     3.7609     0.0124    -0.0894     0.1226     3.7227     0.3297   196.1600     3.5266    -0.0605
  615   12.280   3307.62     3.7807     0.0124    -0.0822     0.1228     3.7450     0.3296   196.4800     3.5486    -0.0586
  616   12.300   3308.56     3.8391     0.0141    -0.0740     0.1230     3.8068     0.3676   196.8000     3.6100    -0.0554
  617   12.320   3309.56     3.8335     0.0171    -0.0681     0.1232     3.8041     0.4439   197.1200     3.6070    -0.0536
  618   12.340   3310.52     3.7621     0.0162    -0.0588     0.1234     3.7362     0.4277   197.4400     3.5388    -0.0523
  619   12.360   3311.50     3.7373     0.0127    -0.0544     0.1236     3.7137     0.3399   197.7600     3.5160    -0.0511
  620   12.380   3312.47     3.7342     0.0113    -0.0464     0.1238     3.7135     0.3015   198.0800     3.5154    -0.0493
  621   12.400   3313.42     3.6412     0.0130    -0.0436     0.1240     3.6232     0.3537   198.4000     3.4248    -0.0487
  622   12.420   3314.41     3.5189     0.0170    -0.0498     0.1242     3.4984     0.4809   198.7200     3.2997    -0.0525
  623   12.440   3315.37     3.4700     0.0147    -0.0515     0.1244     3.4482     0.4228   199.0400     3.2491    -0.0543
  624   12.460   3316.37     3.3738     0.0109    -0.0502     0.1246     3.3525     0.3202   199.3600     3.1531    -0.0556
  625   12.480   3317.31     3.3219     0.0082    -0.0431     0.1248     3.3032     0.2476   199.6800     3.1035    -0.0546
  626   12.500   3318.29     3.3348     0.0072    -0.0338     0.1250     3.3189     0.2169   200.0000     3.1189    -0.0523
  627   12.520   3319.23     3.3294     0.0076    -0.0307     0.1252     3.3173     0.2293   200.3200     3.1170    -0.0494
  628   12.540   3320.23     3.1400     0.0091    -0.0401     0.1254     3.1241     0.2829   200.6400     2.9234    -0.0559
  629   12.560   3321.17     2.8162     0.0105    -0.0428     0.1256     2.7981     0.3610   200.9600     2.5971    -0.0650
  630   12.580   3322.17     2.4420     0.0110    -0.0256     0.1258     2.4278     0.4287   201.2800     2.2265    -0.0717
  631   12.600   3323.13     1.9008     0.0115    -0.0058     0.1260     1.8960     0.5691   201.6000     1.6944    -0.0813
  632   12.620   3324.12     1.6235     0.0132     0.0195     0.1262     1.6266     0.7799   201.9200     1.4247    -0.0833
  633   12.640   3325.05     1.3998     0.0157     0.0893     0.1264     1.4246     1.0789   202.2400     1.2223    -0.0546
  634   12.660   3326.02     1.2749     0.0204     0.2232     0.1266     1.3471     1.5867   202.5600     1.1446     0.0396
  635   12.680   3327.00     1.2966     0.0191     0.3086     0.1268     1.4149     1.4882   202.8800     1.2120     0.1275
  636   12.700   3328.00     1.3307     0.0199     0.3539     0.1270     1.4744     1.5032   203.2000     1.2712     0.1693
  637   12.720   3328.96     1.3515     0.0224     0.3385     0.1272     1.4977     1.6604   203.5200     1.2942     0.1707
  638   12.740   3329.92     1.3322     0.0257     0.3150     0.1274     1.4711     1.9144   203.8400     1.2672     0.1604
  639   12.760   3330.85     1.3095     0.0290     0.3263     0.1276     1.4494     2.1978   204.1600     1.2452     0.1650
  640   12.780   3331.79     1.3127     0.0294     0.3337     0.1278     1.4525     2.2491   204.4800     1.2480     0.1643
  641   12.800   3332.78     1.3118     0.0264     0.2922     0.1280     1.4450     2.0056   204.8000     1.2402     0.1524
  642   12.820   3333.76     1.2643     0.0235     0.2633     0.1282     1.3759     1.8368   205.1200     1.1708     0.1174
  643   12.840   3334.72     1.2077     0.0236     0.2750     0.1284     1.3197     1.9307   205.4400     1.1143     0.1241
  644   12.860   3335.66     1.1778     0.0215     0.2939     0.1286     1.2990     1.8115   205.7600     1.0933     0.1464
  645   12.880   3336.65     1.1358     0.0183     0.2970     0.1288     1.2627     1.5859   206.0800     1.0566     0.1640
  646   12.900   3337.62     1.0832     0.0158     0.2556     0.1290     1.1976     1.4296   206.4000     0.9912     0.1443
  647   12.920   3338.58     1.0183     0.0178     0.2091     0.1292     1.1102     1.7220   206.7200     0.9035     0.0990
  648   12.940   3339.55     0.9183     0.0190     0.2331     0.1294     1.0102     1.9512   207.0400     0.8032     0.1117
  649   12.960   3340.51     0.9087     0.0188     0.2715     0.1296     1.0179     2.0834   207.3600     0.8105     0.1606
  650   12.980   3341.49     0.9537     0.0221     0.2967     0.1298     1.0748     2.3712   207.6800     0.8671     0.1826
  651   13.000   3342.44     0.9800     0.0241     0.3134     0.1300     1.1091     2.4763   208.0000     0.9011     0.1966
  652   13.020   3354.54     1.0627     0.0254     0.3259     0.1302     1.1977     2.5650   208.3200     0.9894     0.1943
  653   13.040   3372.87     1.1737     0.0251     0.3399     0.1304     1.3140     2.4955   208.6400     1.1053     0.1844
  654   13.060   3375.64     1.2268     0.0246     0.3670     0.1306     1.3757     2.0222   208.9600     1.1667     0.1918
  655   13.080   3376.63     1.2261     0.0218     0.4201     0.1308     1.3940     1.7748   209.2800     1.1847     0.2271
  656   13.100   3377.60     1.2001     0.0203     0.4865     0.1310     1.3954     1.6802   209.6000     1.1858     0.2816
  657   13.120   3378.58     1.2127     0.0259     0.5056     0.1312     1.4239     2.1533   209.9200     1.2140     0.3062
  658   13.140   3379.52     1.2509     0.0299     0.5189     0.1314     1.4687     2.4467   210.2400     1.2584     0.3078
  659   13.160   3380.47     1.3896     0.0276     0.4730     0.1316     1.6004     2.0769   210.5600     1.3898     0.2668
  660   13.180   3381.42     1.5651     0.0260     0.3042     0.1318     1.7157     1.7141   210.8800     1.5048     0.1508
  661   13.200   3382.42     1.6197     0.0268     0.2642     0.1320     1.7288     1.6527   211.2000     1.5176     0.0843
  662   13.220   3383.30     1.4666     0.0253     0.3030     0.1322     1.5858     1.6755   211.5200     1.3743     0.1104
  663   13.240   3384.28     1.2931     0.0240     0.3569     0.1324     1.4363     1.7994   211.8400     1.2245     0.1705
  664   13.260   3385.24     1.1993     0.0242     0.3947     0.1326     1.3604     1.9861   212.1600     1.1483     0.2188
  665   13.280   3386.23     1.1563     0.0212     0.4109     0.1328     1.3252     1.8187   212.4800     1.1127     0.2419
  666   13.300   3387.21     1.1358     0.0191     0.4302     0.1330     1.3173     1.6826   212.8000     1.1045     0.2709
  667   13.320   3388.20     1.1973     0.0226     0.3853     0.1332     1.3718     1.9117   213.1200     1.1587     0.2437
  668   13.340   3389.16     1.1849     0.0279     0.3641     0.1334     1.3311     2.3174   213.4400     1.1177     0.1922
  669   13.360   3390.11     1.2592     0.0305     0.4217     0.1336     1.4306     2.5600   213.7600     1.2168     0.2254
  670   13.380   3391.10     1.5496     0.0297     0.3818     0.1338     1.7233     2.0985   214.0800     1.5092     0.1863
  671   13.400   3392.06     1.8726     0.0296     0.2145     0.1340     1.9853     1.6673   214.4000     1.7709     0.0765
  672   13.420   3393.03     2.1785     0.0326     0.1248     0.1342     2.2442     1.5561   214.7200     2.0295     0.0113
  673   13.440   3393.98     2.2302     0.0383     0.1296     0.1344     2.2794     1.7037   215.0400     2.0643    -0.0084
  674   13.460   3394.91     2.1464     0.0435     0.1534     0.1346     2.2162     1.9974   215.3600     2.0008     0.0157
  675   13.480   3395.80     2.0794     0.0384     0.1796     0.1348     2.1431     1.8581   215.6800     1.9274     0.0087
  676   13.500   3396.81     2.1023     0.0363     0.3446     0.1350     2.2288     1.7380   216.0000     2.0128     0.0825
  677   13.520   3397.86     2.5781     0.0347     0.2266     0.1352     2.7135     1.4965   216.3200     2.4972     0.0757
  678   13.540   3398.82     3.3409     0.0329     0.0573     0.1354     3.3743     1.0654   216.6400     3.1576    -0.0177
  679   13.560   3399.80     4.0810     0.0324    -0.0593     0.1356     4.0689     0.8362   216.9600     3.8519    -0.0426
  680   13.580   3400.74     4.4665     0.0329    -0.0680     0.1358     4.4365     0.7549   217.2800     4.2192    -0.0491
  681   13.600   3401.73     4.8057     0.0298    -0.0543     0.1360     4.7823     0.6335   217.6000     4.5647    -0.0420
  682   13.620   3402.68     4.9533     0.0262    -0.0514     0.1362     4.9307     0.5317   217.9200     4.7128    -0.0403
  683   13.640   3403.64     4.9631     0.0321    -0.0407     0.1364     4.9448     0.6450   218.2400     4.7266    -0.0381
  684   13.660   3404.63     4.9528     0.0347    -0.0405     0.1366     4.9369     0.7024   218.5600     4.7184    -0.0369
  685   13.680   3405.57     4.9933     0.0363    -0.0973     0.1368     4.9620     0.7263   218.8800     4.7431    -0.0446
  686   13.700   3406.58     4.9529     0.0391    -0.1092     0.1370     4.9074     0.7847   219.2000     4.6882    -0.0523
  687   13.720   3407.53     4.9960     0.0371    -0.1012     0.1372     4.9523     0.7487   219.5200     4.7327    -0.0510
  688   13.740   3408.48     5.2683     0.0317    -0.1162     0.1374     5.2234     0.6147   219.8400     5.0036    -0.0488
  689   13.760   3409.47     5.7781     0.0294    -0.1055     0.1376     5.7320     0.5250   220.1600     5.5119    -0.0449
  690   13.780   3410.47     6.4241     0.0264    -0.1333     0.1378     6.3708     0.4265   220.4800     6.1503    -0.0430
  691   13.800   3411.42     7.0447     0.0216    -0.1324     0.1380     6.9929     0.3166   220.8000     6.7721    -0.0386
  692   13.820   3412.40     7.4061     0.0232    -0.1417     0.1382     7.3481     0.3171   221.1200     7.1270    -0.0388
  693   13.840   3413.35     7.5547     0.0296    -0.1439     0.1384     7.4932     0.3917   221.4400     7.2718    -0.0392
  694   13.860   3414.28     7.6840     0.0331    -0.1449     0.1386     7.6240     0.4330   221.7600     7.4022    -0.0380
  695   13.880   3415.26     7.7851     0.0351    -0.1497     0.1388     7.7218     0.4524   222.0800     7.4997    -0.0386
  696   13.900   3416.24     7.9906     0.0381    -0.1510     0.1390     7.9281     0.4797   222.4000     7.7057    -0.0374
  697   13.920   3417.20     8.0374     0.0368    -0.1589     0.1392     7.9725     0.4591   222.7200     7.7498    -0.0379
  698   13.940   3418.14     8.1472     0.0412    -0.1680     0.1394     8.0768     0.5073   223.0400     7.8537    -0.0391
  699   13.960   3419.08     8.2085     0.0504    -0.1603     0.1396     8.1399     0.6146   223.3600     7.9165    -0.0383
  700   13.980   3420.09     8.2288     0.0535    -0.1721     0.1398     8.1578     0.6503   223.6800     7.9342    -0.0389
  701   14.000   3421.05     8.2318     0.0496    -0.1808     0.1400     8.1569     0.6076   224.0000     7.9329    -0.0401
  702   14.020   3422.03     8.4793     0.0445    -0.1848     0.1402     8.4023     0.5288   224.3200     8.1779    -0.0396
  703   14.040   3423.01     8.9980     0.0361    -0.1859     0.1404     8.9204     0.4123   224.6400     8.6957    -0.0374
  704   14.060   3424.00     9.6274     0.0314    -0.1912     0.1406     9.5477     0.3333   224.9600     9.3228    -0.0354
  705   14.080   3424.99    10.1262     0.0342    -0.1981     0.1408    10.0440     0.3424   225.2800     9.8187    -0.0343
  706   14.100   3425.93    10.4189     0.0415    -0.2093     0.1410    10.3333     0.4014   225.6000    10.1077    -0.0341
  707   14.120   3426.88    10.4864     0.0470    -0.2168     0.1412    10.3961     0.4488   225.9200    10.1702    -0.0350
  708   14.140   3427.79    10.4264     0.0520    -0.2167     0.1414    10.3353     0.4972   226.2400    10.1090    -0.0354
  709   14.160   3428.79    10.3713     0.0516    -0.2155     0.1416    10.2806     0.4972   226.5600    10.0541    -0.0356
  710   14.180   3429.79    10.4690     0.0493    -0.2159     0.1418    10.3784     0.4721   226.8800    10.1515    -0.0352
  711   14.200   3430.72    10.4276     0.0482    -0.2178     0.1420    10.3366     0.4603   227.2000    10.1094    -0.0355
  712   14.220   3431.69    10.2640     0.0483    -0.2214     0.1422    10.1715     0.4668   227.5200     9.9440    -0.0364
  713   14.240   3432.63    10.1404     0.0437    -0.2236     0.1424    10.0467     0.4293   227.8400     9.8188    -0.0372
  714   14.260   3433.59    10.0455     0.0320    -0.2250     0.1426     9.9512     0.3168   228.1600     9.7230    -0.0378
  715   14.280   3434.56     9.7820     0.0249    -0.2259     0.1428     9.6871     0.2528   228.4800     9.4586    -0.0390
  716   14.300   3435.51     9.5806     0.0199    -0.2270     0.1430     9.4854     0.2069   228.8000     9.2566    -0.0399
  717   14.320   3436.48     9.4527     0.0142    -0.2268     0.1432     9.3572     0.1495   229.1200     9.1281    -0.0406
  718   14.340   3437.44     9.1656     0.0118    -0.2269     0.1434     9.0702     0.1270   229.4400     8.8408    -0.0419
  719   14.360   3438.38     8.8166     0.0131    -0.2268     0.1436     8.7214     0.1468   229.7600     8.4917    -0.0436
  720   14.380   3439.35     8.4961     0.0134    -0.2257     0.1438     8.4011     0.1558   230.0800     8.1710    -0.0453
  721   14.400   3440.34     8.0703     0.0123    -0.2249     0.1440     7.9756     0.1503   230.4000     7.7452    -0.0477
  722   14.420   3441.29     7.8414     0.0094    -0.2240     0.1442     7.7472     0.1186   230.7200     7.5164    -0.0490
  723   14.440   3442.23     7.6028     0.0091    -0.2232     0.1444     7.5090     0.1183   231.0400     7.2779    -0.0505
  724   14.460   3443.19     7.3716     0.0079    -0.2223     0.1446     7.2781     0.1063   231.3600     7.0468    -0.0521
  725   14.480   3444.20     7.2280     0.0101    -0.2214     0.1448     7.1347     0.1394   231.6800     6.9030    -0.0531
  726   14.500   3445.19     7.1581     0.0135    -0.2198     0.1450     7.0655     0.1880   232.0000     6.8335    -0.0535
  727   14.520   3446.18     7.2196     0.0095    -0.2182     0.1452     7.1278     0.1322   232.3200     6.8955    -0.0528
  728   14.540   3447.13     7.3737     0.0072    -0.2173     0.1454     7.2823     0.0975   232.6400     7.0497    -0.0515
  729   14.560   3448.09     7.4450     0.0055    -0.2162     0.1456     7.3540     0.0745   232.9600     7.1211    -0.0509
  730   14.580   3449.04     7.3864     0.0057    -0.2157     0.1458     7.2958     0.0776   233.2800     7.0625    -0.0512
  731   14.600   3450.01     7.2654     0.0083    -0.2154     0.1460     7.1750     0.1138   233.6000     6.9414    -0.0520
  732   14.620   3450.97     6.9195     0.0094    -0.2152     0.1462     6.8290     0.1340   233.9200     6.5951    -0.0548
  733   14.640   3451.95     6.3186     0.0079    -0.2141     0.1464     6.2284     0.1208   234.2400     5.9942    -0.0603
  734   14.660   3452.93     5.6056     0.0098    -0.2146     0.1466     5.5155     0.1674   234.5600     5.2810    -0.0685
  735   14.680   3453.93     4.7065     0.0132    -0.2137     0.1468     4.6166     0.2645   234.8800     4.3817    -0.0825
  736   14.700   3454.87     3.7785     0.0147    -0.2127     0.1470     3.6889     0.3585   235.2000     3.4537    -0.1044
  737   14.720   3455.85     3.0955     0.0165    -0.2117     0.1472     3.0065     0.4892   235.5200     2.7710    -0.1299
  738   14.740   3456.77     2.3760     0.0166    -0.2100     0.1474     2.2876     0.6330   235.8400     2.0517    -0.1749
  739   14.760   3457.73     1.8952     0.0140    -0.2076     0.1476     1.8076     0.6864   236.1600     1.5715    -0.2269
  740   14.780   3458.70     1.6290     0.0147    -0.2039     0.1478     1.5428     0.8513   236.4800     1.3063    -0.2710
  741   14.800   3459.64     1.4257     0.0106    -0.2015     0.1480     1.3407     0.7195   236.8000     1.1039    -0.3175
  742   14.820   3460.59     1.3993     0.0104    -0.1998     0.1482     1.3152     0.7485   237.1200     1.0781    -0.3233
  743   14.840   3461.56     1.4066     0.0092    -0.1976     0.1484     1.3233     0.6445   237.4400     1.0859    -0.3196
  744   14.860   3462.51     1.2616     0.0102    -0.1957     0.1486     1.1790     0.7865   237.7600     0.9413    -0.3684
  745   14.880   3463.49     1.1100     0.0170    -0.1920     0.1488     1.0288     1.4768   238.0800     0.7907    -0.4329
  746   14.900   3464.45     1.3122     0.0241    -0.1884     0.1490     1.2326     2.0576   238.4000     0.9942    -0.3447
  747   14.920   3465.45     1.7477     0.0292    -0.1874     0.1492     1.6689     1.8220   238.7200     1.4301    -0.2357
  748   14.940   3466.38     1.8589     0.0282    -0.1886     0.1494     1.7798     1.5346   239.0400     1.5407    -0.2192
  749   14.960   3467.37     1.7561     0.0247    -0.1877     0.1496     1.6768     1.3804   239.3600     1.4374    -0.2355
  750   14.980   3478.43     1.6068     0.0193    -0.1686     0.1498     1.5333     1.1539   239.6800     1.2936    -0.2514
  751   15.000   3494.28     1.5088     0.0201    -0.1531     0.1500     1.4433     1.2104   240.0000     1.2033    -0.2544
  752   15.020   3497.13     1.4297     0.0212    -0.1491     0.1502     1.3663     1.4633   240.3200     1.1260    -0.2675
  753   15.040   3498.10     1.4843     0.0220    -0.1437     0.1504     1.4233     1.5084   240.6400     1.1827    -0.2500
  754   15.060   3499.07     1.5622     0.0192    -0.1447     0.1506     1.5017     1.2286   240.9600     1.2607    -0.2338
  755   15.080   3500.04     1.5319     0.0142    -0.1440     0.1508     1.4711     0.9103   241.2800     1.2298    -0.2405
  756   15.100   3500.98     1.3880     0.0119    -0.1389     0.1510     1.3290     0.8333   241.6000     1.0874    -0.2684
  757   15.120   3501.93     1.2311     0.0119    -0.1334     0.1512     1.1741     0.9257   241.9200     0.9322    -0.3083
  758   15.140   3502.94     1.0463     0.0130    -0.1292     0.1514     0.9916     1.1959   242.2400     0.7493    -0.3765
  759   15.160   3503.89     0.9787     0.0158    -0.1211     0.1516     0.9266     1.5967   242.5600     0.6841    -0.4030
  760   15.180   3504.89     1.0386     0.0191    -0.1142     0.1518     0.9897     1.8984   242.8800     0.7468    -0.3594
  761   15.200   3505.81     1.1591     0.0177    -0.1091     0.1520     1.1126     1.6015   243.2000     0.8694    -0.3022
  762   15.220   3506.76     1.4024     0.0149    -0.1036     0.1522     1.3582     1.1470   243.5200     1.1147    -0.2314
  763   15.240   3507.74     1.7203     0.0175    -0.1004     0.1524     1.6778     1.0970   243.8400     1.4340    -0.1774
  764   15.260   3508.71     1.9319     0.0214    -0.0999     0.1526     1.8901     1.1404   244.1600     1.6459    -0.1533
  765   15.280   3509.65     2.0441     0.0198    -0.0984     0.1528     2.0023     0.9795   244.4800     1.7579    -0.1435
  766   15.300   3510.62     1.9684     0.0171    -0.0951     0.1530     1.9278     0.8385   244.8000     1.6830    -0.1484
  767   15.320   3511.55     1.7422     0.0150    -0.0865     0.1532     1.7044     0.8214   245.1200     1.4593    -0.1667
  768   15.340   3512.51     1.5156     0.0147    -0.0755     0.1534     1.4821     0.9285   245.4400     1.2367    -0.1887
  769   15.360   3513.52     1.3739     0.0164    -0.0612     0.1536     1.3461     1.1681   245.7600     1.1004    -0.1997
  770   15.380   3514.42     1.4182     0.0171    -0.0490     0.1538     1.3963     1.2372   246.0800     1.1502    -0.1794
  771   15.400   3515.41     1.5884     0.0195    -0.0416     0.1540     1.5701     1.2720   246.4000     1.3237    -0.1493
  772   15.420   3516.37     1.7341     0.0216    -0.0353     0.1542     1.7190     1.2849   246.7200     1.4723    -0.1293
  773   15.440   3517.33     1.8678     0.0190    -0.0301     0.1544     1.8541     1.0368   247.0400     1.6070    -0.1164
  774   15.460   3518.29     1.8851     0.0197    -0.0195     0.1546     1.8751     1.0487   247.3600     1.6277    -0.1096
  775   15.480   3519.24     1.9025     0.0242    -0.0051     0.1548     1.8986     1.2882   247.6800     1.6509    -0.0993
  776   15.500   3520.20     1.9356     0.0220     0.0028     0.1550     1.9360     1.1256   248.0000     1.6880    -0.0912
  777   15.520   3521.17     1.8204     0.0188     0.0108     0.1552     1.8232     1.0130   248.3200     1.5749    -0.0943
  778   15.540   3522.13     1.7189     0.0190     0.0158     0.1554     1.7255     1.1004   248.6400     1.4769    -0.0946
  779   15.560   3523.08     1.7266     0.0186     0.0166     0.1556     1.7332     1.0853   248.9600     1.4842    -0.0943
  780   15.580   3524.08     1.6571     0.0122     0.0201     0.1558     1.6651     0.7206   249.2800     1.4158    -0.0967
  781   15.600   3525.03     1.4225     0.0105     0.0254     0.1560     1.4320     0.6974   249.6000     1.1824    -0.1130
  782   15.620   3525.99     1.1869     0.0111     0.0401     0.1562     1.2007     0.8945   249.9200     0.9508    -0.1296
  783   15.640   3526.98     1.0393     0.0120     0.0627     0.1564     1.0627     1.1270   250.2400     0.8125    -0.1237
  784   15.660   3527.93     1.0169     0.0126     0.1001     0.1566     1.0545     1.2436   250.5600     0.8040    -0.0836
  785   15.680   3528.95     1.1509     0.0162     0.1102     0.1568     1.1958     1.4551   250.8800     0.9449    -0.0528
  786   15.700   3529.90     1.2476     0.0162     0.1335     0.1570     1.2999     1.3351   251.2000     1.0487    -0.0312
  787   15.720   3530.81     1.3463     0.0179     0.1651     0.1572     1.4105     1.3551   251.5200     1.1590    -0.0037
  788   15.740   3531.84     1.6290     0.0159     0.1964     0.1574     1.7072     1.0357   251.8400     1.4554     0.0198
  789   15.760   3532.82     2.0739     0.0206     0.2200     0.1576     2.1630     1.0501   252.1600     1.9109     0.0285
  790   15.780   3533.80     2.9458     0.0282     0.2138     0.1578     3.0377     1.0552   252.4800     2.7853     0.0220
  791   15.800   3534.75     3.8293     0.0276     0.1779     0.1580     3.9102     0.7612   252.8000     3.6574     0.0096
  792   15.820   3535.70     4.3605     0.0247     0.1441     0.1582     4.4257     0.5866   253.1200     4.1726    -0.0007
  793   15.840   3536.68     4.7612     0.0290     0.1091     0.1584     4.8137     0.6187   253.4400     4.5602    -0.0073
  794   15.860   3537.69     4.9638     0.0276     0.0467     0.1586     4.9946     0.5644   253.7600     4.7409    -0.0180
  795   15.880   3538.66     5.1161     0.0240     0.0035     0.1588     5.1236     0.4742   254.0800     4.8695    -0.0290
  796   15.900   3539.63     4.9004     0.0191    -0.0346     0.1590     4.8887     0.3795   254.4000     4.6343    -0.0403
  797   15.920   3540.53     4.8514     0.0158    -0.0462     0.1592     4.8343     0.3253   254.7200     4.5796    -0.0436
  798   15.940   3541.50     4.7742     0.0138    -0.0509     0.1594     4.7538     0.2855   255.0400     4.4988    -0.0462
  799   15.960   3542.46     4.4034     0.0182    -0.0506     0.1596     4.3820     0.4028   255.3600     4.1266    -0.0511
  800   15.980   3543.41     3.8550     0.0230    -0.0442     0.1598     3.8352     0.5771   255.6800     3.5795    -0.0578
  801   16.000   3544.35     3.3745     0.0237    -0.0340     0.1600     3.3588     0.6741   256.0000     3.1028    -0.0636
  802   16.020   3545.29     2.9627     0.0227    -0.0153     0.1602     2.9540     0.7406   256.3200     2.6977    -0.0671
  803   16.040   3546.29     2.5470     0.0231     0.0154     0.1604     2.5483     0.8699   256.6400     2.2916    -0.0686
  804   16.060   3547.34     2.1171     0.0211     0.0533     0.1606     2.1349     0.9467   256.9600     1.8779    -0.0629
  805   16.080   3548.30     1.8387     0.0196     0.0770     0.1608     1.8692     1.0123   257.2800     1.6120    -0.0547
  806   16.100   3549.22     1.4841     0.0177     0.0911     0.1610     1.5190     1.0905   257.6000     1.2614    -0.0619
  807   16.120   3550.16     1.2208     0.0149     0.1211     0.1612     1.2673     1.1479   257.9200     1.0094    -0.0498
  808   16.140   3551.12     1.0784     0.0102     0.1583     0.1614     1.1381     0.9199   258.2400     0.8799    -0.0217
  809   16.160   3552.11     0.9442     0.0077     0.2180     0.1616     1.0278     0.7795   258.5600     0.7692     0.0492
  810   16.180   3553.07     0.8307     0.0075     0.2662     0.1618     0.9358     0.8600   258.8800     0.6770     0.1317
  811   16.200   3554.01     0.7237     0.0085     0.3151     0.1620     0.8491     1.1339   259.2000     0.5899     0.2319
  812   16.220   3554.97     0.6833     0.0078     0.3638     0.1622     0.8305     1.1232   259.5200     0.5710     0.3299
  813   16.240   3555.97     0.6665     0.0066     0.3826     0.1624     0.8264     0.9895   259.8400     0.5666     0.3854
  814   16.260   3556.91     0.6584     0.0057     0.3879     0.1626     0.8209     0.8632   260.1600     0.5608     0.4003
  815   16.280   3557.87     0.6462     0.0056     0.4006     0.1628     0.8117     0.8601   260.4800     0.5513     0.4199
  816   16.300   3558.82     0.6049     0.0063     0.4236     0.1630     0.7788     1.0133   260.8000     0.5180     0.4851
  817   16.320   3559.77     0.5669     0.0064     0.4486     0.1632     0.7527     1.1063   261.1200     0.4915     0.5678
  818   16.340   3560.77     0.5751     0.0061     0.4564     0.1634     0.7652     1.0713   261.4400     0.5037     0.5739
  819   16.360   3561.77     0.5828     0.0064     0.4610     0.1636     0.7767     1.1096   261.7600     0.5149     0.5790
  820   16.380   3562.73     0.6080     0.0065     0.4512     0.1638     0.7992     1.0862   262.0800     0.5371     0.5428
  821   16.400   3563.64     0.5901     0.0070     0.4579     0.1640     0.7797     1.1721   262.4000     0.5173     0.5558
  822   16.420   3564.62     0.5732     0.0063     0.4707     0.1642     0.7696     1.0927   262.7200     0.5069     0.5987
  823   16.440   3565.61     0.5796     0.0073     0.4797     0.1644     0.7806     1.2650   263.0400     0.5176     0.6070
  824   16.460   3566.60     0.6027     0.0091     0.4794     0.1646     0.8041     1.5256   263.3600     0.5407     0.5823
  825   16.480   3567.52     0.6095     0.0087     0.4908     0.1648     0.8130     1.4271   263.6800     0.5494     0.5821
  826   16.500   3568.48     0.6295     0.0075     0.4974     0.1650     0.8383     1.1944   264.0000     0.5743     0.5784
  827   16.520   3569.47     0.6600     0.0075     0.4736     0.1652     0.8620     1.1474   264.3200     0.5977     0.5283
  828   16.540   3570.45     0.6683     0.0074     0.4654     0.1654     0.8648     1.0985   264.6400     0.6001     0.5037
  829   16.560   3571.44     0.6500     0.0077     0.4792     0.1656     0.8477     1.1646   264.9600     0.5828     0.5239
  830   16.580   3572.43     0.6184     0.0080     0.4967     0.1658     0.8251     1.2744   265.2800     0.5598     0.5832
  831   16.600   3573.38     0.6050     0.0086     0.5036     0.1660     0.8146     1.4123   265.6000     0.5490     0.6065
  832   16.620   3574.38     0.5943     0.0080     0.5174     0.1662     0.8094     1.3460   265.9200     0.5435     0.6365
  833   16.640   3575.35     0.6016     0.0086     0.5186     0.1664     0.8201     1.4299   266.2400     0.5539     0.6387
  834   16.660   3576.31     0.6139     0.0086     0.5194     0.1666     0.8325     1.4103   266.5600     0.5659     0.6253
  835   16.680   3577.27     0.6306     0.0085     0.5171     0.1668     0.8477     1.3374   266.8800     0.5808     0.6025
  836   16.700   3578.26     0.6283     0.0084     0.5240     0.1670     0.8459     1.3349   267.2000     0.5787     0.6064
  837   16.720   3579.22     0.6240     0.0083     0.5365     0.1672     0.8485     1.3324   267.5200     0.5810     0.6322
  838   16.740   3580.20     0.6182     0.0087     0.5445     0.1674     0.8453     1.4095   267.8400     0.5774     0.6462
  839   16.760   3581.16     0.6170     0.0085     0.5519     0.1676     0.8484     1.3728   268.1600     0.5802     0.6604
  840   16.780   3582.10     0.6300     0.0084     0.5529     0.1678     0.8619     1.3311   268.4800     0.5934     0.6478
  841   16.800   3584.15     0.6443     0.0085     0.5507     0.1680     0.8759     1.3410   268.8000     0.6071     0.6321
  842   16.820   3586.48     0.6588     0.0096     0.5486     0.1682     0.8895     1.5139   269.1200     0.6204     0.6149
  843   16.840   3588.52     0.6754     0.0108     0.5530     0.1684     0.9062     1.6096   269.4400     0.6368     0.5987
  844   16.860   3591.96     0.7137     0.0100     0.5343     0.1686     0.9446     1.4316   269.7600     0.6748     0.5672
  845   16.880   3604.26     0.7809     0.0068     0.4897     0.1688     0.9931     0.9752   270.0800     0.7230     0.4709
  846   16.900   3613.57     0.8450     0.0047     0.4845     0.1690     1.0456     0.5562   270.4000     0.7752     0.3980
  847   16.920   3614.51     0.8607     0.0053     0.5094     0.1692     1.0708     0.6128   270.7200     0.8000     0.4137
  848   16.940   3615.48     0.8673     0.0057     0.5380     0.1694     1.0886     0.6631   271.0400     0.8176     0.4373
  849   16.960   3616.48     1.0018     0.0177     0.5832     0.1696     1.2414     1.8354   271.3600     0.9701     0.4144
  850   16.980   3617.53     3.2506     0.0271     0.5709     0.1698     3.4959     1.3007   271.6800     3.2242     0.1368
  851   17.000   3618.53     6.2803     0.0277     0.3674     0.1700     6.4761     0.5176   272.0000     6.2041     0.0490
  852   17.020   3619.52     7.8440     0.0387     0.1151     0.1702     7.9264     0.5103   272.3200     7.6541     0.0035
  853   17.040   3620.49     7.8633     0.0481     0.1007     0.1704     7.9058     0.6032   272.6400     7.6331    -0.0091
  854   17.060   3621.44     7.4522     0.0531     0.1202     0.1706     7.4976     0.7006   272.9600     7.2246    -0.0087
  855   17.080   3622.39     7.1348     0.0591     0.1289     0.1708     7.1920     0.8212   273.2800     6.9187    -0.0050
  856   17.100   3623.33     7.1577     0.0648     0.1412     0.1710     7.2121     0.9082   273.6000     6.9385    -0.0060
  857   17.120   3624.32     7.3717     0.0653     0.1672     0.1712     7.4402     0.8908   273.9200     7.1663    -0.0011
  858   17.140   3625.31     7.3749     0.0613     0.1552     0.1714     7.4439     0.8309   274.2400     7.1697    -0.0010
  859   17.160   3626.26     7.2801     0.0525     0.1570     0.1716     7.3428     0.7206   274.5600     7.0683    -0.0031
  860   17.180   3627.23     7.4608     0.0461     0.1609     0.1718     7.5297     0.6268   274.8800     7.2548    -0.0011
  861   17.200   3628.22     8.2023     0.0400     0.0823     0.1720     8.2510     0.5123   275.2000     7.9758    -0.0070
  862   17.220   3629.23     9.3304     0.0338     0.0436     0.1722     9.3520     0.3830   275.5200     9.0764    -0.0133
  863   17.240   3630.17    10.5016     0.0377     0.0134     0.1724    10.5124     0.3755   275.8400    10.2365    -0.0143
  864   17.260   3631.15    11.3112     0.0470    -0.0098     0.1726    11.3078     0.4272   276.1600    11.0316    -0.0164
  865   17.280   3632.06    11.5654     0.0604    -0.0010     0.1728    11.5635     0.5255   276.4800    11.2870    -0.0157
  866   17.300   3633.02    11.6449     0.0767     0.0213     0.1730    11.6509     0.6588   276.8000    11.3741    -0.0139
  867   17.320   3633.96    11.3328     0.0937     0.0273     0.1732    11.3436     0.8145   277.1200    11.0665    -0.0133
  868   17.340   3634.92    10.4643     0.1124     0.0369     0.1734    10.4782     1.0359   277.4400    10.2007    -0.0138
  869   17.360   3635.82     9.2393     0.1294     0.0508     0.1736     9.2591     1.3488   277.7600     8.9813    -0.0141
  870   17.380   3636.78     7.7396     0.1352     0.0638     0.1738     7.7643     1.6589   278.0800     7.4862    -0.0154
  871   17.400   3637.78     6.3134     0.1282     0.0901     0.1740     6.3476     1.9011   278.4000     6.0692    -0.0153
  872   17.420   3638.73     5.4370     0.1174     0.1200     0.1742     5.4819     2.0830   278.7200     5.2032    -0.0129
  873   17.440   3639.69     5.0494     0.1062     0.1795     0.1744     5.1163     2.0918   279.0400     4.8372    -0.0031
  874   17.460   3640.69     5.2694     0.0893     0.1920     0.1746     5.3513     1.7249   279.3600     5.0719     0.0040
  875   17.480   3641.61     5.6832     0.0801     0.1881     0.1748     5.7615     1.4474   279.6800     5.4818     0.0021
  876   17.500   3642.59     6.6011     0.0764     0.1720     0.1750     6.6807     1.2062   280.0000     6.4007     0.0023
  877   17.520   3643.57     7.9654     0.0858     0.0105     0.1752     7.9932     1.1246   280.3200     7.7129    -0.0139
  878   17.540   3644.56     8.8711     0.0827    -0.0698     0.1754     8.8519     0.9503   280.6400     8.5712    -0.0258
  879   17.560   3645.51     9.2776     0.0612    -0.0825     0.1756     9.2431     0.6634   280.9600     8.9621    -0.0288
  880   17.580   3646.50     9.2271     0.0618    -0.0895     0.1758     9.1893     0.6670   281.2800     8.9080    -0.0298
  881   17.600   3647.46     8.8428     0.0710    -0.0824     0.1760     8.8065     0.7899   281.6000     8.5249    -0.0308
  882   17.620   3648.44     8.4881     0.0742    -0.0213     0.1762     8.4718     0.8695   281.9200     8.1899    -0.0263
  883   17.640   3649.41     8.5875     0.0733     0.0158     0.1764     8.5928     0.8606   282.2400     8.3106    -0.0197
  884   17.660   3650.41     9.1432     0.0643     0.0407     0.1766     9.1520     0.7234   282.5600     8.8694    -0.0176
  885   17.680   3651.35     9.8285     0.0509    -0.0019     0.1768     9.8352     0.5327   282.8800     9.5523    -0.0169
  886   17.700   3652.31    10.4591     0.0403    -0.0390     0.1770    10.4493     0.3914   283.2000    10.1661    -0.0197
  887   17.720   3653.32    10.6951     0.0387    -0.0507     0.1772    10.6726     0.3639   283.5200    10.3891    -0.0222
  888   17.740   3654.28    10.8051     0.0429    -0.0472     0.1774    10.7842     0.3980   283.8400    10.5003    -0.0216
  889   17.760   3655.19    10.8555     0.0509    -0.0356     0.1776    10.8384     0.4701   284.1600    10.5542    -0.0207
  890   17.780   3656.09    10.9201     0.0604    -0.0268     0.1778    10.9085     0.5532   284.4800    10.6240    -0.0193
  891   17.800   3657.07    10.7332     0.0653    -0.0205     0.1780    10.7232     0.6040   284.8000    10.4384    -0.0193
  892   17.820   3658.04    10.4138     0.0669    -0.0121     0.1782    10.4076     0.6371   285.1200    10.1225    -0.0191
  893   17.840   3659.05    10.1894     0.0681    -0.0208     0.1784    10.1816     0.6631   285.4400     9.8961    -0.0199
  894   17.860   3660.00     9.9993     0.0656    -0.0127     0.1786     9.9925     0.6508   285.7600     9.7067    -0.0201
  895   17.880   3660.97     9.8216     0.0662     0.0034     0.1788     9.8208     0.6693   286.0800     9.5347    -0.0190
  896   17.900   3661.94     9.6350     0.0683     0.0114     0.1790     9.6383     0.7040   286.4000     9.3519    -0.0183
  897   17.920   3662.89     9.4041     0.0684     0.0206     0.1792     9.4111     0.7187   286.7200     9.1244    -0.0178
  898   17.940   3663.81     9.1210     0.0674     0.0335     0.1794     9.1333     0.7290   287.0400     8.8463    -0.0170
  899   17.960   3664.74     8.9037     0.0642     0.0466     0.1796     8.9214     0.7137   287.3600     8.6340    -0.0159
  900   17.980   3665.71     8.4864     0.0601     0.0577     0.1798     8.5092     0.6965   287.6800     8.2215    -0.0152
  901   18.000   3666.67     8.0326     0.0542     0.0676     0.1800     8.0598     0.6630   288.0000     7.7718    -0.0148
  902   18.020   3667.62     7.5388     0.0504     0.0724     0.1802     7.5686     0.6532   288.3200     7.2803    -0.0150
  903   18.040   3668.57     6.9907     0.0506     0.0791     0.1804     7.0225     0.7090   288.6400     6.7339    -0.0155
  904   18.060   3669.55     6.3172     0.0513     0.0865     0.1806     6.3526     0.7877   288.9600     6.0637    -0.0159
  905   18.080   3670.52     5.6670     0.0543     0.0828     0.1808     5.7010     0.9251   289.2800     5.4117    -0.0185
  906   18.100   3671.49     5.0914     0.0587     0.0868     0.1810     5.1291     1.1207   289.6000     4.8395    -0.0189
  907   18.120   3672.44     4.6524     0.0604     0.0968     0.1812     4.6914     1.2803   289.9200     4.4015    -0.0201
  908   18.140   3673.41     4.6343     0.0539     0.1177     0.1814     4.6790     1.1706   290.2400     4.3887    -0.0171
  909   18.160   3674.36     5.0221     0.0469     0.1467     0.1816     5.0780     0.9581   290.5600     4.7875    -0.0101
  910   18.180   3675.36     5.7665     0.0411     0.1687     0.1818     5.8377     0.7444   290.8800     5.5468    -0.0022
  911   18.200   3676.33     6.8211     0.0364     0.0992     0.1820     6.8760     0.5618   291.2000     6.5848    -0.0078
  912   18.220   3677.33     7.4874     0.0329     0.0287     0.1822     7.5060     0.4526   291.5200     7.2144    -0.0191
  913   18.240   3678.28     7.4640     0.0303     0.0259     0.1824     7.4713     0.4017   291.8400     7.1795    -0.0230
  914   18.260   3679.24     7.2129     0.0347     0.0348     0.1826     7.2257     0.4737   292.1600     6.9336    -0.0219
  915   18.280   3680.16     7.0245     0.0488     0.0535     0.1828     7.0443     0.6909   292.4800     6.7518    -0.0201
  916   18.300   3681.14     6.7873     0.0614     0.0674     0.1830     6.8137     0.8916   292.8000     6.5209    -0.0184
  917   18.320   3682.07     6.4245     0.0793     0.0841     0.1832     6.4574     1.2035   293.1200     6.1643    -0.0170
  918   18.340   3683.03     5.8057     0.0854     0.1034     0.1834     5.8450     1.4279   293.4400     5.5515    -0.0162
  919   18.360   3683.99     5.1354     0.0844     0.1137     0.1836     5.1802     1.6024   293.7600     4.8865    -0.0157
  920   18.380   3684.99     4.6966     0.0968     0.1465     0.1838     4.7525     2.0199   294.0800     4.4584    -0.0114
  921   18.400   3685.95     4.3717     0.1068     0.1501     0.1840     4.4352     2.3946   294.4000     4.1408    -0.0079
  922   18.420   3686.89     4.2461     0.1096     0.2085     0.1842     4.3146     2.5686   294.7200     4.0199    -0.0052
  923   18.440   3687.88     4.0572     0.1123     0.1914     0.1844     4.1435     2.7637   295.0400     3.8485     0.0055
  924   18.460   3688.84     4.4118     0.1058     0.1315     0.1846     4.4688     2.4836   295.3600     4.1735    -0.0117
  925   18.480   3689.81     5.1753     0.0945     0.1940     0.1848     5.2482     1.9334   295.6800     4.9526    -0.0022
  926   18.500   3690.81     6.8336     0.0809     0.1620     0.1850     6.9256     1.2991   296.0000     6.6296     0.0051
  927   18.520   3691.80     8.4565     0.0689     0.0370     0.1852     8.4871     0.8677   296.3200     8.1908    -0.0137
  928   18.540   3692.74     9.5253     0.0417    -0.0435     0.1854     9.5146     0.4550   296.6400     9.2180    -0.0229
  929   18.560   3693.71     9.8583     0.0416    -0.0675     0.1856     9.8314     0.4242   296.9600     9.5345    -0.0262
  930   18.580   3694.67     9.7486     0.0519    -0.0684     0.1858     9.7203     0.5275   297.2800     9.4230    -0.0269
  931   18.600   3695.64     9.4457     0.0628    -0.0763     0.1860     9.4148     0.6542   297.6000     9.1172    -0.0285
  932   18.620   3696.59     8.9014     0.0679    -0.0761     0.1862     8.8689     0.7457   297.9200     8.5710    -0.0308
  933   18.640   3697.55     8.2872     0.0695    -0.0700     0.1864     8.2562     0.8266   298.2400     7.9579    -0.0327
  934   18.660   3700.32     7.6033     0.0709    -0.0194     0.1866     7.5880     0.9062   298.5600     7.2894    -0.0306
  935   18.680   3701.92     7.3517     0.0694    -0.0028     0.1868     7.3466     0.9372   298.8800     7.0478    -0.0282
  936   18.700   3702.91     7.4548     0.0671     0.0309     0.1870     7.4641     0.9075   299.2000     7.1649    -0.0230
  937   18.720   3703.87     7.5412     0.0593     0.0117     0.1872     7.5478     0.7860   299.5200     7.2482    -0.0237
  938   18.740   3711.62     7.3439     0.0547     0.0124     0.1874     7.3487     0.7288   299.8400     7.0489    -0.0250
  939   18.760   3725.46     7.0272     0.0561     0.0149     0.1876     7.0331     0.7469   300.1600     6.7329    -0.0258
  940   18.780   3738.84     6.7060     0.0546     0.0111     0.1878     6.7127     0.7628   300.4800     6.4122    -0.0268
  941   18.800   3739.78     6.2904     0.0568     0.0149     0.1880     6.2947     0.8874   300.8000     5.9939    -0.0296
  942   18.820   3740.75     6.0125     0.0661     0.0362     0.1882     6.0235     1.0877   301.1200     5.7223    -0.0283
  943   18.840   3741.74     6.0458     0.0744     0.0644     0.1884     6.0694     1.2397   301.4400     5.7680    -0.0229
  944   18.860   3742.68     6.2963     0.0638     0.0661     0.1886     6.3262     1.0266   301.7600     6.0245    -0.0195
  945   18.880   3743.65     6.4679     0.0576     0.0484     0.1888     6.4898     0.9006   302.0800     6.1877    -0.0221
  946   18.900   3744.62     6.6219     0.0602     0.0175     0.1890     6.6359     0.9130   302.4000     6.3335    -0.0246
  947   18.920   3745.58     6.4311     0.0690    -0.0158     0.1892     6.4278     1.0544   302.7200     6.1251    -0.0322
  948   18.940   3746.53     5.7491     0.0737    -0.0327     0.1894     5.7374     1.2359   303.0400     5.4343    -0.0401
  949   18.960   3747.50     5.0231     0.0763    -0.0234     0.1896     5.0119     1.4664   303.3600     4.7086    -0.0460
  950   18.980   3748.45     4.4299     0.0760    -0.0042     0.1898     4.4252     1.6657   303.6800     4.1215    -0.0488
  951   19.000   3749.42     3.7585     0.0822     0.0172     0.1900     3.7640     2.1036   304.0000     3.4600    -0.0512
  952   19.020   3750.40     3.4384     0.0900     0.0676     0.1902     3.4497     2.5983   304.3200     3.1454    -0.0519
  953   19.040   3751.36     3.7118     0.0884     0.1758     0.1904     3.7679     2.4750   304.6400     3.4632    -0.0165
  954   19.060   3752.36     4.9210     0.0751     0.2449     0.1906     5.0249     1.6536   304.9600     4.7199     0.0120
  955   19.080   3753.33     6.4548     0.0646     0.1582     0.1908     6.5341     1.0698   305.2800     6.2288    -0.0003
  956   19.100   3754.29     6.8393     0.0572     0.0155     0.1910     6.8579     0.8403   305.6000     6.5523    -0.0224
  957   19.120   3755.32     6.4408     0.0588    -0.0173     0.1912     6.4346     0.8916   305.9200     6.1287    -0.0336
  958   19.140   3756.24     5.9057     0.0735    -0.0155     0.1914     5.8982     1.2177   306.2400     5.5920    -0.0374
  959   19.160   3757.20     5.4916     0.0862    -0.0062     0.1916     5.4872     1.5450   306.5600     5.1807    -0.0390
  960   19.180   3758.15     5.2620     0.1003     0.0157     0.1918     5.2643     1.8943   306.8800     4.9574    -0.0376
  961   19.200   3759.11     5.1615     0.1094     0.0640     0.1920     5.1804     2.1047   307.2000     4.8732    -0.0301
  962   19.220   3760.12     5.1952     0.1060     0.1277     0.1922     5.2400     2.0633   307.5200     4.9325    -0.0174
  963   19.240   3761.09     5.5563     0.0989     0.1416     0.1924     5.6181     1.8276   307.8400     5.3103    -0.0085
  964   19.260   3762.10     6.5382     0.0821     0.0449     0.1926     6.5772     1.3434   308.1600     6.2690    -0.0157
  965   19.280   3763.05     7.2766     0.0673    -0.0298     0.1928     7.2700     0.9423   308.4800     6.9615    -0.0299
  966   19.300   3764.05     7.3274     0.0551    -0.0246     0.1930     7.3166     0.7507   308.8000     7.0078    -0.0312
  967   19.320   3765.03     7.2196     0.0564    -0.0140     0.1932     7.2118     0.7771   309.1200     6.9027    -0.0307
  968   19.340   3765.94     7.0540     0.0670     0.0000     0.1934     7.0511     0.9395   309.4400     6.7417    -0.0297
  969   19.360   3766.91     6.6870     0.0891     0.0488     0.1936     6.6974     1.3019   309.7600     6.3877    -0.0264
  970   19.380   3767.87     5.9856     0.1048    -0.0002     0.1938     6.0001     1.6711   310.0800     5.6900    -0.0281
  971   19.400   3768.81     5.0566     0.1057    -0.0276     0.1940     5.0476     1.9651   310.4000     4.7372    -0.0455
  972   19.420   3769.79     4.1070     0.0796    -0.0363     0.1942     4.0920     1.8143   310.7200     3.7813    -0.0608
  973   19.440   3770.73     3.4765     0.0728    -0.0126     0.1944     3.4656     2.0045   311.0400     3.1545    -0.0700
  974   19.460   3771.68     3.0338     0.0734     0.0373     0.1946     3.0443     2.3245   311.3600     2.7329    -0.0620
  975   19.480   3772.63     3.2330     0.0681     0.0921     0.1948     3.2593     2.2334   311.6800     2.9476    -0.0454
  976   19.500   3773.59     5.1447     0.0596     0.1436     0.1950     5.2037     1.3234   312.0000     4.8917    -0.0115
  977   19.520   3774.60     6.8357     0.0502     0.0611     0.1952     6.8751     0.7761   312.3200     6.5627    -0.0153
  978   19.540   3775.58     7.2451     0.0466    -0.0038     0.1954     7.2517     0.6427   312.6400     6.9390    -0.0259
  979   19.560   3776.53     7.0569     0.0571    -0.0116     0.1956     7.0528     0.7978   312.9600     6.7398    -0.0305
  980   19.580   3777.54     6.3782     0.0797    -0.0127     0.1958     6.3726     1.1913   313.2800     6.0594    -0.0346
  981   19.600   3778.49     5.5004     0.1008    -0.0040     0.1960     5.4972     1.7325   313.6000     5.1836    -0.0393
  982   19.620   3779.43     4.5984     0.1021     0.0092     0.1962     4.5998     2.0924   313.9200     4.2859    -0.0451
  983   19.640   3780.35     3.7524     0.0999     0.0281     0.1964     3.7602     2.4935   314.2400     3.4459    -0.0517
  984   19.660   3781.31     3.2220     0.0930     0.0670     0.1966     3.2411     2.7639   314.5600     2.9266    -0.0516
  985   19.680   3782.26     2.9618     0.0915     0.1520     0.1968     3.0150     3.0137   314.8800     2.7001    -0.0259
  986   19.700   3783.26     2.7522     0.0858     0.2586     0.1970     2.8431     3.0654   315.2000     2.5279     0.0077
  987   19.720   3784.24     2.5818     0.0756     0.3504     0.1972     2.7222     2.8148   315.5200     2.4067     0.0572
  988   19.740   3785.20     2.6025     0.0699     0.3335     0.1974     2.7490     2.7405   315.8400     2.4332     0.0623
  989   19.760   3786.13     3.1066     0.0956     0.2775     0.1976     3.2257     3.2736   316.1600     2.9096     0.0302
  990   19.780   3787.11     3.9604     0.1154     0.2797     0.1978     4.0827     3.1125   316.4800     3.7662     0.0251
  991   19.800   3788.07     4.0725     0.0955     0.1935     0.1980     4.1738     2.2483   316.8000     3.8570     0.0108
  992   19.820   3789.05     3.4248     0.0821     0.0842     0.1982     3.4662     2.2885   317.1200     3.1491    -0.0319
  993   19.840   3790.00     2.9170     0.0709     0.1206     0.1984     2.9606     2.3353   317.4400     2.6432    -0.0356
  994   19.860   3790.98     2.6777     0.0699     0.1863     0.1986     2.7435     2.6584   317.7600     2.4257    -0.0177
  995   19.880   3791.95     3.9326     0.0798     0.2980     0.1988     4.0382     2.3221   318.0800     3.7201     0.0132
  996   19.900   3792.96     6.4446     0.0747     0.3533     0.1990     6.6049     1.3081   318.4000     6.2865     0.0295
  997   19.920   3793.92     8.1089     0.0717     0.1077     0.1992     8.1876     0.9039   318.7200     7.8689    -0.0015
  998   19.940   3794.89     8.1490     0.0732     0.0729     0.1994     8.1805     0.8940   319.0400     7.8614    -0.0158
  999   19.960   3795.84     7.9875     0.0766     0.1021     0.1996     8.0228     0.9581   319.3600     7.7035    -0.0150
 1000   19.980   3796.85     8.4416     0.0818     0.1731     0.1998     8.5046     0.9938   319.6800     8.1849    -0.0061
 1001   20.000   3797.85     9.5453     0.0806     0.1753     0.2000     9.6253     0.8869   320.0000     9.3053    -0.0010
 1002   20.020   3798.83    10.6286     0.0793     0.0971     0.2002    10.6866     0.7729   320.3200    10.3662    -0.0060
 1003   20.040   3799.76    10.9988     0.0879     0.0389     0.2004    11.0203     0.8025   320.6400    10.6996    -0.0140
 1004   20.060   3800.71    10.7603     0.1007     0.0271     0.2006    10.7714     0.9247   320.9600    10.4504    -0.0167
 1005   20.080   3801.65    10.2034     0.1357     0.0430     0.2008    10.2187     1.3001   321.2800     9.8974    -0.0166
 1006   20.100   3802.63     9.1772     0.1700     0.0552     0.2010     9.1990     1.7913   321.6000     8.8774    -0.0168
 1007   20.120   3803.58     7.8690     0.1830     0.0673     0.2012     7.8954     2.2343   321.9200     7.5735    -0.0183
 1008   20.140   3804.53     6.6983     0.1646     0.0793     0.2014     6.7290     2.3744   322.2400     6.4067    -0.0201
 1009   20.160   3805.46     5.8826     0.1529     0.1395     0.2016     5.9287     2.5501   322.5600     5.6061    -0.0163
 1010   20.180   3806.47     5.3243     0.1480     0.2359     0.2018     5.4158     2.7078   322.8800     5.0930     0.0032
 1011   20.200   3807.46     5.6813     0.1346     0.2374     0.2020     5.7807     2.5362   323.2000     5.4575     0.0064
 1012   20.220   3808.43     7.3624     0.1224     0.4156     0.2022     7.5095     1.8457   323.5200     7.1860     0.0203
 1013   20.240   3809.45     9.6188     0.1129     0.2269     0.2024     9.7357     1.3354   323.8400     9.4119     0.0083
 1014   20.260   3810.41    11.7916     0.0971     0.0762     0.2026    11.8380     0.9083   324.1600    11.5138    -0.0080
 1015   20.280   3811.36    13.7915     0.0754     0.0529     0.2028    13.8153     0.5908   324.4800    13.4908    -0.0108
 1016   20.300   3812.29    15.0829     0.0671     0.0608     0.2030    15.1073     0.4489   324.8000    14.7825    -0.0098
 1017   20.320   3813.23    15.8498     0.0755     0.0678     0.2032    15.8770     0.4861   325.1200    15.5518    -0.0089
 1018   20.340   3814.13    16.2601     0.0824     0.0797     0.2034    16.2921     0.5124   325.4400    15.9667    -0.0080
 1019   20.360   3815.04    16.2702     0.0872     0.0848     0.2036    16.3045     0.5344   325.7600    15.9788    -0.0076
 1020   20.380   3815.99    15.6608     0.1001     0.0923     0.2038    15.6979     0.6248   326.0800    15.3719    -0.0075
 1021   20.400   3816.93    14.5388     0.1217     0.0996     0.2040    14.5801     0.8045   326.4000    14.2537    -0.0074
 1022   20.420   3817.85    13.5788     0.1327     0.0945     0.2042    13.6187     0.9433   326.7200    13.2920    -0.0082
 1023   20.440   3818.77    12.7037     0.1227     0.1115     0.2044    12.7481     0.9333   327.0400    12.4211    -0.0079
 1024   20.460   3819.69    12.1783     0.1158     0.1265     0.2046    12.2295     0.9337   327.3600    11.9022    -0.0069
 1025   20.480   3820.67    12.1896     0.1073     0.1419     0.2048    12.2476     0.8704   327.6800    11.9199    -0.0056
 1026   20.500   3821.58    12.9219     0.0977     0.0987     0.2050    12.9746     0.7527   328.0000    12.6466    -0.0063
 1027   20.520   3822.53    14.0981     0.0880     0.0138     0.2052    14.1148     0.6351   328.3200    13.7865    -0.0120
 1028   20.540   3823.48    15.1963     0.0824    -0.0399     0.2054    15.1834     0.5464   328.6400    14.8548    -0.0159
 1029   20.560   3824.35    15.2642     0.0875    -0.0624     0.2056    15.2437     0.5722   328.9600    14.9148    -0.0171
 1030   20.580   3825.50    14.4585     0.0920    -0.0498     0.2058    14.4242     0.6294   329.2800    14.0949    -0.0204
 1031   20.600   3840.53    14.1761     0.0957     0.0424     0.2060    14.1806     0.6619   329.6000    13.8510    -0.0139
 1032   20.620   3855.56    13.8938     0.1031     0.1346     0.2062    13.9370     0.7128   329.9200    13.6070    -0.0074
 1033   20.640   3868.91    13.6127     0.1063     0.1851     0.2064    13.6901     0.7452   330.2400    13.3599    -0.0016
 1034   20.660   3869.86    13.2838     0.1087     0.1500     0.2066    13.3512     0.8068   330.5600    13.0206    -0.0035
 1035   20.680   3870.76    12.6546     0.1094     0.1337     0.2068    12.7148     0.8426   330.8800    12.3839    -0.0051
 1036   20.700   3871.68    11.8000     0.1098     0.1174     0.2070    11.8497     0.8966   331.2000    11.5185    -0.0077
 1037   20.720   3872.61    10.8659     0.1090     0.1259     0.2072    10.9175     0.9704   331.5200    10.5860    -0.0080
 1038   20.740   3873.58    10.0787     0.1197     0.1330     0.2074    10.1346     1.1560   331.8400     9.8028    -0.0076
 1039   20.760   3874.52     9.3474     0.1476     0.1415     0.2076     9.4045     1.5356   332.1600     9.0723    -0.0079
 1040   20.780   3875.47     8.6404     0.1581     0.1361     0.2078     8.6990     1.7813   332.4800     8.3665    -0.0082
 1041   20.800   3876.40     8.0694     0.1429     0.1331     0.2080     8.1276     1.7404   332.8000     7.7948    -0.0089
 1042   20.820   3877.35     7.3660     0.1261     0.0932     0.2082     7.4099     1.6586   333.1200     7.0768    -0.0147
 1043   20.840   3878.29     6.4558     0.1158     0.0389     0.2084     6.4778     1.7162   333.4400     6.1443    -0.0255
 1044   20.860   3879.25     5.8436     0.1069     0.0944     0.2086     5.8691     1.8328   333.7600     5.5353    -0.0267
 1045   20.880   3880.27     7.6655     0.0870     0.1578     0.2088     7.7203     1.2743   334.0800     7.3863    -0.0106
 1046   20.900   3881.26     9.8763     0.0765     0.1847     0.2090     9.9550     0.8385   334.4000     9.6206    -0.0023
 1047   20.920   3882.21    10.3618     0.0708     0.0311     0.2092    10.3939     0.6743   334.7200    10.0591    -0.0133
 1048   20.940   3883.16     9.7150     0.0852     0.0188     0.2094     9.7223     0.8606   335.0400     9.3873    -0.0205
 1049   20.960   3884.06     8.9613     0.1052     0.0230     0.2096     8.9696     1.1372   335.3600     8.6343    -0.0220
 1050   20.980   3885.03     8.1091     0.1346     0.0373     0.2098     8.1228     1.6093   335.6800     7.7871    -0.0228
 1051   21.000   3886.02     7.3084     0.1505     0.0574     0.2100     7.3289     1.9814   336.0000     6.9929    -0.0231
 1052   21.020   3887.00     6.2469     0.1730     0.0793     0.2102     6.2767     2.6145   336.3200     5.9404    -0.0235
 1053   21.040   3887.96     5.1236     0.1634     0.1049     0.2104     5.1629     2.9890   336.6400     4.8263    -0.0242
 1054   21.060   3888.86     4.2175     0.1440     0.1968     0.2106     4.2821     3.2178   336.9600     3.9451    -0.0142
 1055   21.080   3889.84     3.5704     0.1190     0.3415     0.2108     3.6907     3.1990   337.2800     3.3534     0.0226
 1056   21.100   3890.84     3.0461     0.1068     0.5403     0.2110     3.2470     3.2888   337.6000     2.9094     0.0920
 1057   21.120   3891.79     2.8894     0.0941     0.7360     0.2112     3.1651     3.2801   337.9200     2.8272     0.1574
 1058   21.140   3892.74     2.9251     0.0746     0.8829     0.2114     3.2913     2.5644   338.2400     2.9530     0.2235
 1059   21.160   3893.73     3.0811     0.0657     0.7631     0.2116     3.4240     2.1375   338.5600     3.0855     0.1961
 1060   21.180   3894.69     2.7679     0.0596     0.5365     0.2118     3.0369     2.0349   338.8800     2.6981     0.1584
 1061   21.200   3895.66     2.3075     0.0537     0.4073     0.2120     2.4837     2.1920   339.2000     2.1445     0.0967
 1062   21.220   3896.61     1.9460     0.0516     0.4161     0.2122     2.1137     2.4690   339.5200     1.7741     0.1057
 1063   21.240   3897.60     1.6814     0.0466     0.5170     0.2124     1.8826     2.6326   339.8400     1.5428     0.1735
 1064   21.260   3898.55     1.5277     0.0458     0.6259     0.2126     1.7780     2.9408   340.1600     1.4379     0.2666
 1065   21.280   3899.49     1.6233     0.0329     0.6861     0.2128     1.9068     2.0998   340.4800     1.5664     0.2952
 1066   21.300   3900.44     1.7947     0.0233     0.6963     0.2130     2.0843     1.3396   340.8000     1.7435     0.2733
 1067   21.320   3901.37     1.7782     0.0221     0.5825     0.2132     2.0484     1.2216   341.1200     1.7073     0.2517
 1068   21.340   3902.37     1.6325     0.0249     0.5685     0.2134     1.8612     1.4683   341.4400     1.5197     0.2181
 1069   21.360   3903.33     1.5258     0.0215     0.6086     0.2136     1.7744     1.3949   341.7600     1.4326     0.2640
 1070   21.380   3904.28     1.4407     0.0258     0.6722     0.2138     1.7196     1.7706   342.0800     1.3776     0.3269
 1071   21.400   3905.20     1.5085     0.0251     0.7020     0.2140     1.8016     1.6981   342.4000     1.4592     0.3316
 1072   21.420   3906.17     1.5552     0.0199     0.6853     0.2142     1.8471     1.2818   342.7200     1.5044     0.3197
 1073   21.440   3907.15     1.5616     0.0185     0.6978     0.2144     1.8529     1.1729   343.0400     1.5099     0.3175
 1074   21.460   3908.13     1.4277     0.0178     0.6408     0.2146     1.7013     1.2087   343.3600     1.3579     0.3215
 1075   21.480   3909.15     1.2830     0.0177     0.6786     0.2148     1.5591     1.3297   343.6800     1.2154     0.3645
 1076   21.500   3910.11     1.1695     0.0157     0.7664     0.2150     1.4821     1.2947   344.0000     1.1381     0.4654
 1077   21.520   3911.09     1.1384     0.0147     0.7874     0.2152     1.4671     1.2875   344.3200     1.1228     0.5053
 1078   21.540   3912.02     1.1336     0.0135     0.7950     0.2154     1.4663     1.1835   344.6400     1.1216     0.5141
 1079   21.560   3913.00     1.1179     0.0140     0.8030     0.2156     1.4533     1.2499   344.9600     1.1084     0.5261
 1080   21.580   3913.90     1.1132     0.0145     0.8155     0.2158     1.4552     1.2966   345.2800     1.1099     0.5393
 1081   21.600   3914.86     1.1013     0.0149     0.8167     0.2160     1.4448     1.3529   345.6000     1.0992     0.5475
 1082   21.620   3915.81     1.0965     0.0149     0.8160     0.2162     1.4390     1.3591   345.9200     1.0931     0.5482
 1083   21.640   3916.84     1.0935     0.0154     0.8150     0.2164     1.4347     1.4095   346.2400     1.0884     0.5476
 1084   21.660   3917.80     1.0793     0.0155     0.8222     0.2166     1.4229     1.4349   346.5600     1.0764     0.5589
 1085   21.680   3918.75     1.0698     0.0157     0.8312     0.2168     1.4175     1.4653   346.8800     1.0706     0.5707
 1086   21.700   3919.71     1.0597     0.0154     0.8367     0.2170     1.4103     1.4539   347.2000     1.0631     0.5810
 1087   21.720   3920.68     1.0516     0.0156     0.8377     0.2172     1.4034     1.4881   347.5200     1.0558     0.5875
 1088   21.740   3921.64     1.0509     0.0159     0.8514     0.2174     1.4062     1.5015   347.8400     1.0584     0.5940
 1089   21.760   3922.58     1.0586     0.0164     0.8555     0.2176     1.4180     1.5550   348.1600     1.0699     0.5965
 1090   21.780   3923.54     1.0643     0.0174     0.8585     0.2178     1.4239     1.6357   348.4800     1.0754     0.5935
 1091   21.800   3924.52     1.0706     0.0181     0.8619     0.2180     1.4320     1.6859   348.8000     1.0832     0.5932
 1092   21.820   3925.51     1.0535     0.0181     0.8511     0.2182     1.4129     1.7134   349.1200     1.0637     0.5993
 1093   21.840   3926.46     1.0384     0.0178     0.8501     0.2184     1.3946     1.7099   349.4400     1.0451     0.6025
 1094   21.860   3927.43     1.0312     0.0180     0.8562     0.2186     1.3897     1.7480   349.7600     1.0399     0.6106
 1095   21.880   3928.43     1.0342     0.0179     0.8739     0.2188     1.3997     1.7276   350.0800     1.0496     0.6207
 1096   21.900   3929.43     1.0239     0.0181     0.8769     0.2190     1.3913     1.7665   350.4000     1.0409     0.6299
 1097   21.920   3930.40     1.0229     0.0182     0.8758     0.2192     1.3900     1.7881   350.7200     1.0393     0.6300
 1098   21.940   3931.35     1.0208     0.0183     0.8888     0.2194     1.3936     1.7877   351.0400     1.0425     0.6408
 1099   21.960   3932.29     1.0279     0.0182     0.8969     0.2196     1.4034     1.7721   351.3600     1.0521     0.6412
 1100   21.980   3933.25     1.0432     0.0181     0.9015     0.2198     1.4210     1.7459   351.6800     1.0693     0.6357
 1101   22.000   3934.22     1.0396     0.0179     0.9073     0.2200     1.4194     1.7228   352.0000     1.0674     0.6409
 1102   22.020   3935.20     1.0498     0.0183     0.9189     0.2202     1.4332     1.7591   352.3200     1.0809     0.6409
 1103   22.040   3936.16     1.0742     0.0184     0.9238     0.2204     1.4623     1.7313   352.6400     1.1097     0.6342
 1104   22.060   3937.11     1.0949                0.9283     0.2206     1.4844              352.9600     1.1315     0.6248
 1105   22.080   3938.11     1.0979                0.9145     0.2208     1.4842              353.2800     1.1309     0.6179
 1106   22.100   3939.05     1.0950                0.9139     0.2210     1.4794              353.6000     1.1258     0.6167
 1107   22.120   3940.01     1.1124                0.9218     0.2212     1.4989              353.9200     1.1449     0.6105
 1108   22.140   3940.93     1.1229                0.9166     0.2214     1.5068              354.2400     1.1526     0.6010
 1109   22.159   3941.81     1.1045                           0.2216     1.4890              354.5366     1.1345     0.6116
 
 
