

 Program UNIPLOT                         version 05.36.02
 _______________
 (c) Fugro Netherlands Marine, Nootdorp, The Netherlands


 ASCII representation of data plotted on a graph.

 This ASCII file presents data interpolated to values per fixed depth interval.
 The data are corrected for the depth-offset differences between the various 
 transducers in the penetrometer.

 The records at the start of penetration may include no values or anomalous
 values where a depth offset implies incomplete penetration of a particular
 sensor into the ground.

 The records at the end of penetration may include no values for data channels
 where the transducer did not reach this depth.

 The reference level for test values is (1) the ground surface for onshore tests and (2) the seafloor for nearshore and offshore tests.

 UNICAS data file          : CPT-1023(S).000                         
 Output using command file : PlotASCII.cmd

 ASCII file created at : date          :24-May-2022
                         time          :16:07:24
 Project number                        :20024805                                                                                            
 Date of testing                       :24-Apr-2022                                                                                         
 Location                              :Hong Kong Offshore Wind Farm Project                                                                
 Test name                             :CPT-1023(S)
 Penetrometer                          :F7.5CKE2X3S\B\2753
 Serial no                             :1701-2753

 Table description:
 Column ID                             :Parameter name
 ___________________________________________________________________________________
 Rec                                   :Record ID, Record ID [-]
 Depth                                 :Depth, Depth [m]
 Time                                  :Time, Time [s]
 Cone                                  :Cone Resistance, Cone Resistance [MPa]
 Friction                              :Sleeve Friction, Sleeve Friction [MPa]
 Pore 2                                :Porewater Pressure, Porewater Pressure at Shoulder [MPa]
 HydroPress                            :Hydrostatic Pressure, Hydrostatic Pressure [MPa]
 qt                                    :Total Cone Resistance, Total Cone Resistance [MPa]
 Fric_ratio                            :Friction Ratio, Friction Ratio [%]
 SigmaVert                             :Vertical stress, Vertical stress [kPa] as specified in ground model
 Qnet                                  :Net Cone Resistance, Net Cone Resistance [MPa], unit weight as specified in ground model
 Bq                                    :Porewater Pressure Ratio, Porewater Pressure Ratio [-], unit weight as specified in ground model


 Data table:
  Rec    Depth      Time       Cone   Friction     Pore 2 HydroPress         qt Fric_ratio  SigmaVert       Qnet         Bq
   No        m         s        MPa        MPa        MPa        MPa        MPa          %        kPa        MPa          -
    1    0.000   1462.00     0.0000                           0.0000     0.0000                0.0000     0.0000           
    2    0.020   1463.19     0.0030               -0.0009     0.0002     0.0027                0.3200     0.0024    -0.3799
    3    0.040   1464.33     0.0034               -0.0013     0.0004     0.0029                0.6400     0.0023    -0.7033
    4    0.060   1465.40     0.0039     0.0005    -0.0013     0.0006     0.0033    13.0219     0.9600     0.0023    -0.8865
    5    0.080   1466.45     0.0042     0.0006    -0.0011     0.0008     0.0034    14.6883     1.2800     0.0022    -1.1780
    6    0.100   1467.50     0.0038     0.0006     0.0000     0.0010     0.0037    14.8218     1.6000     0.0021    -0.5552
    7    0.120   1468.50     0.0043     0.0006     0.0006     0.0012     0.0044    14.3619     1.9200     0.0025    -0.3554
    8    0.140   1469.50     0.0051     0.0007     0.0012     0.0014     0.0056    13.7195     2.2400     0.0034    -0.0437
    9    0.160   1470.50     0.0057     0.0008     0.0013     0.0016     0.0061    13.3592     2.5600     0.0035    -0.1590
   10    0.180   1471.55     0.0079     0.0008     0.0010     0.0018     0.0082    10.6690     2.8800     0.0053    -0.2004
   11    0.200   1472.55     0.0088     0.0008    -0.0010     0.0020     0.0087     9.6529     3.2000     0.0055    -0.4179
   12    0.220   1473.55     0.0087     0.0009     0.0000     0.0022     0.0087    10.4931     3.5200     0.0052    -0.4030
   13    0.240   1474.56     0.0081     0.0010     0.0009     0.0024     0.0085    12.1997     3.8400     0.0046    -0.3584
   14    0.260   1475.55     0.0081     0.0010     0.0007     0.0026     0.0085    12.5502     4.1600     0.0043    -0.3929
   15    0.280   1476.56     0.0085     0.0011     0.0009     0.0028     0.0089    12.3239     4.4800     0.0044    -0.4042
   16    0.300   1477.56     0.0088     0.0011     0.0005     0.0030     0.0094    12.8527     4.8000     0.0046    -0.3924
   17    0.320   1478.56     0.0082     0.0010     0.0010     0.0032     0.0089    12.2980     5.1200     0.0038    -0.4483
   18    0.340   1479.56     0.0094     0.0011     0.0026     0.0034     0.0100    12.0588     5.4400     0.0046    -0.4131
   19    0.360   1480.56     0.0101     0.0011     0.0050     0.0036     0.0121    11.4201     5.7600     0.0064     0.1881
   20    0.380   1481.56     0.0110     0.0012     0.0049     0.0038     0.0128    10.7564     6.0800     0.0068     0.0761
   21    0.400   1482.55     0.0127     0.0012     0.0045     0.0040     0.0149     9.6616     6.4000     0.0085     0.1568
   22    0.420   1483.51     0.0137     0.0013     0.0026     0.0042     0.0147     9.3188     6.7200     0.0080    -0.2082
   23    0.440   1484.51     0.0144     0.0014     0.0023     0.0044     0.0156     9.8727     7.0400     0.0085    -0.1858
   24    0.460   1485.51     0.0160     0.0014     0.0027     0.0046     0.0171     9.0617     7.3600     0.0097    -0.2093
   25    0.480   1486.55     0.0197     0.0015     0.0025     0.0048     0.0205     8.0775     7.6800     0.0128    -0.2265
   26    0.500   1487.51     0.0220     0.0016     0.0046     0.0050     0.0236     7.6077     8.0000     0.0156    -0.0674
   27    0.520   1488.51     0.0217     0.0017     0.0032     0.0052     0.0237     7.8848     8.3200     0.0153    -0.0389
   28    0.540   1489.51     0.0186     0.0016     0.0014     0.0054     0.0195     8.2626     8.6400     0.0108    -0.3145
   29    0.560   1490.51     0.0139     0.0016     0.0003     0.0056     0.0145    10.7247     8.9600     0.0055    -0.7892
   30    0.580   1491.46     0.0102     0.0016     0.0011     0.0058     0.0100    14.5507     9.2800     0.0007   -12.9010
   31    0.600   1492.46     0.0078     0.0015     0.0055     0.0060     0.0099    19.1587     9.6000     0.0003    -2.8224
   32    0.620   1493.46     0.0069     0.0015     0.0072     0.0062     0.0096    21.2292     9.9200    -0.0003    -0.5414
   33    0.640   1494.46     0.0079     0.0015     0.0078     0.0064     0.0111    19.4711    10.2400     0.0009     1.8381
   34    0.660   1495.46     0.0086     0.0016     0.0060     0.0066     0.0119    18.0758    10.5600     0.0013     0.8371
   35    0.680   1496.46     0.0083     0.0016     0.0070     0.0068     0.0108    19.1972    10.8800    -0.0001           
   36    0.700   1497.46     0.0077     0.0017     0.0081     0.0070     0.0111    22.1404    11.2000    -0.0001           
   37    0.720   1498.46     0.0072     0.0017     0.0088     0.0072     0.0108    23.3288    11.5200    -0.0007    -1.8151
   38    0.740   1499.46     0.0068     0.0017     0.0096     0.0074     0.0108    24.3331    11.8400    -0.0010    -2.0101
   39    0.760   1500.46     0.0090     0.0018     0.0101     0.0076     0.0132    22.3178    12.1600     0.0010     1.5534
   40    0.780   1501.46     0.0114     0.0019     0.0097     0.0078     0.0158    18.9449    12.4800     0.0033     0.7984
   41    0.800   1502.46     0.0119     0.0020     0.0086     0.0080     0.0163    16.2843    12.8000     0.0035     0.6604
   42    0.820   1503.42     0.0128     0.0019     0.0087     0.0082     0.0162    15.8620    13.1200     0.0031    -0.0506
   43    0.840   1504.42     0.0155     0.0020     0.0077     0.0084     0.0194    13.4404    13.4400     0.0059     0.1281
   44    0.860   1506.57     0.0159     0.0020     0.0072     0.0086     0.0187    12.4893    13.7600     0.0050    -0.3314
   45    0.880   1510.34     0.0149     0.0021     0.0083     0.0088     0.0182    12.6081    14.0800     0.0041    -0.1391
   46    0.900   1514.12     0.0139     0.0021     0.0092     0.0090     0.0177    13.3635    14.4000     0.0033     0.0532
   47    0.920   1515.77     0.0128     0.0020     0.0089     0.0092     0.0165    16.2548    14.7200     0.0018    -0.1660
   48    0.940   1516.77     0.0114     0.0020     0.0084     0.0094     0.0151    16.8922    15.0400     0.0000     0.4835
   49    0.960   1517.77     0.0105     0.0021     0.0084     0.0096     0.0139    20.3111    15.3600    -0.0015     1.0726
   50    0.980   1518.77     0.0117     0.0020     0.0112     0.0098     0.0160    17.3851    15.6800     0.0003     1.4825
   51    1.000   1519.77     0.0119     0.0021     0.0127     0.0100     0.0171    17.4608    16.0000     0.0011     2.1958
   52    1.020   1520.72     0.0127     0.0020     0.0068     0.0102     0.0170    15.6872    16.3200     0.0006     2.8834
   53    1.040   1521.72     0.0143     0.0019     0.0089     0.0104     0.0172    13.6442    16.6400     0.0006     3.6757
   54    1.060   1522.72     0.0154     0.0020     0.0053     0.0106     0.0176    13.0997    16.9600     0.0006   -10.6358
   55    1.080   1523.70     0.0172     0.0020     0.0126     0.0108     0.0226    12.0092    17.2800     0.0054     0.4147
   56    1.100   1524.67     0.0174     0.0021     0.0102     0.0110     0.0224    11.6429    17.6000     0.0048     0.1393
   57    1.120   1525.67     0.0159     0.0020     0.0088     0.0112     0.0197    12.9087    17.9200     0.0018    -1.1044
   58    1.140   1526.66     0.0158     0.0021     0.0106     0.0114     0.0197    13.2676    18.2400     0.0014    -1.6048
   59    1.160   1527.62     0.0129     0.0022     0.0129     0.0116     0.0182    16.1230    18.5600    -0.0004           
   60    1.180   1528.62     0.0101     0.0021     0.0115     0.0118     0.0152    21.2297    18.8800    -0.0037    -0.0680
   61    1.200   1529.62     0.0104     0.0022     0.0151     0.0120     0.0160    20.9911    19.2000    -0.0032    -0.5276
   62    1.220   1530.62     0.0116     0.0021     0.0166     0.0122     0.0186    18.5298    19.5200    -0.0009    -5.5672
   63    1.240   1531.61     0.0137     0.0020     0.0179     0.0124     0.0210    14.7655    19.8400     0.0012     4.1918
   64    1.260   1532.57     0.0149     0.0021     0.0193     0.0126     0.0228    14.1738    20.1600     0.0026     2.3910
   65    1.280   1533.57     0.0149     0.0021     0.0198     0.0128     0.0234    14.2267    20.4800     0.0029     2.5428
   66    1.300   1534.57     0.0160     0.0021     0.0199     0.0130     0.0234    13.0424    20.8000     0.0026     1.7904
   67    1.320   1535.57     0.0186     0.0021     0.0202     0.0132     0.0266    11.5881    21.1200     0.0055     1.0838
   68    1.340   1536.53     0.0204     0.0021     0.0208     0.0134     0.0282    10.3876    21.4400     0.0068     0.7606
   69    1.360   1537.52     0.0208     0.0021     0.0235     0.0136     0.0300     9.7646    21.7600     0.0083     1.0075
   70    1.380   1538.53     0.0208     0.0021     0.0245     0.0138     0.0313     9.9553    22.0800     0.0092     1.2152
   71    1.400   1539.52     0.0196     0.0020     0.0249     0.0140     0.0299    10.3432    22.4000     0.0075     1.4114
   72    1.420   1540.48     0.0195     0.0020     0.0257     0.0142     0.0303    10.2556    22.7200     0.0076     1.5081
   73    1.440   1541.48     0.0192     0.0021     0.0259     0.0144     0.0299    10.8315    23.0400     0.0069     1.6118
   74    1.460   1542.47     0.0193     0.0021     0.0282     0.0146     0.0307    11.0013    23.3600     0.0074     1.7018
   75    1.480   1543.43     0.0199     0.0022     0.0282     0.0148     0.0320    11.0584    23.6800     0.0083     1.6940
   76    1.500   1544.48     0.0185     0.0022     0.0272     0.0150     0.0301    11.4879    24.0000     0.0061     2.0795
   77    1.520   1545.47     0.0181     0.0021     0.0242     0.0152     0.0295    11.5890    24.3200     0.0052     2.3114
   78    1.540   1546.43     0.0174     0.0022     0.0256     0.0154     0.0279    12.3565    24.6400     0.0033     2.9200
   79    1.560   1547.43     0.0152     0.0020     0.0279     0.0156     0.0264    12.9713    24.9600     0.0015     8.1656
   80    1.580   1548.39     0.0130     0.0020     0.0260     0.0158     0.0248    14.9177    25.2800    -0.0005    -7.0167
   81    1.600   1549.38     0.0127     0.0020     0.0262     0.0160     0.0234    15.8950    25.6000    -0.0022    -4.4171
   82    1.620   1550.38     0.0131     0.0019     0.0314     0.0162     0.0254    15.1610    25.9200    -0.0005           
   83    1.640   1551.38     0.0142     0.0019     0.0333     0.0164     0.0282    13.5378    26.2400     0.0019    10.0285
   84    1.660   1552.38     0.0161     0.0018     0.0340     0.0166     0.0303    11.7074    26.5600     0.0038     4.6965
   85    1.680   1553.38     0.0207     0.0019     0.0329     0.0168     0.0347     9.7095    26.8800     0.0078     2.1678
   86    1.700   1554.38     0.0254     0.0020     0.0331     0.0170     0.0393     7.9647    27.2000     0.0121     1.3326
   87    1.720   1555.35     0.0273     0.0021     0.0313     0.0172     0.0414     7.7799    27.5200     0.0139     1.1764
   88    1.740   1556.33     0.0289     0.0023     0.0283     0.0174     0.0404     7.9395    27.8400     0.0125     0.7933
   89    1.760   1557.33     0.0288     0.0024     0.0313     0.0176     0.0412     8.1678    28.1600     0.0131     0.9121
   90    1.780   1558.33     0.0303     0.0024     0.0363     0.0178     0.0453     8.0919    28.4800     0.0168     1.0638
   91    1.800   1559.28     0.0344     0.0025     0.0370     0.0180     0.0496     7.5268    28.8000     0.0208     0.8699
   92    1.820   1560.28     0.0391     0.0025     0.0423     0.0182     0.0563     6.5229    29.1200     0.0272     0.8385
   93    1.840   1561.28     0.0443     0.0027     0.0443     0.0184     0.0626     6.1817    29.4400     0.0332     0.7620
   94    1.860   1562.26     0.0506     0.0028     0.0444     0.0186     0.0692     5.6784    29.7600     0.0395     0.6561
   95    1.880   1563.23     0.0563     0.0029     0.0427     0.0188     0.0742     5.2448    30.0800     0.0442     0.5404
   96    1.900   1564.20     0.0629     0.0029     0.0439     0.0190     0.0816     4.6441    30.4000     0.0512     0.4949
   97    1.920   1565.23     0.0642     0.0030     0.0427     0.0192     0.0819     4.6665    30.7200     0.0512     0.4512
   98    1.940   1566.18     0.0618     0.0032     0.0446     0.0194     0.0798     5.1544    31.0400     0.0487     0.4780
   99    1.960   1567.18     0.0617     0.0031     0.0479     0.0196     0.0815     5.0134    31.3600     0.0501     0.5479
  100    1.980   1568.17     0.0625     0.0030     0.0504     0.0198     0.0835     4.8414    31.6800     0.0519     0.5858
  101    2.000   1569.17     0.0646     0.0031     0.0495     0.0200     0.0849     4.7878    32.0000     0.0529     0.5358
  102    2.020   1570.15     0.0671     0.0034     0.0466     0.0202     0.0869     4.9431    32.3200     0.0546     0.4970
  103    2.040   1571.14     0.0722     0.0037     0.0509     0.0204     0.0932     5.1002    32.6400     0.0605     0.4889
  104    2.060   1572.14     0.0776     0.0038     0.0415     0.0206     0.0971     4.9839    32.9600     0.0642     0.4043
  105    2.080   1573.14     0.0790     0.0038     0.0453     0.0208     0.0977     4.7476    33.2800     0.0645     0.3705
  106    2.100   1574.12     0.0765     0.0037     0.0423     0.0210     0.0945     4.7793    33.6000     0.0609     0.3591
  107    2.120   1584.31     0.0744     0.0036     0.0415     0.0212     0.0919     4.8011    33.9200     0.0580     0.3543
  108    2.140   1601.04     0.0733     0.0036     0.0407     0.0214     0.0906     4.8389    34.2400     0.0563     0.3473
  109    2.160   1617.78     0.0723     0.0035     0.0397     0.0216     0.0892     4.8616    34.5600     0.0546     0.3402
  110    2.180   1618.99     0.0747     0.0036     0.0438     0.0218     0.0917     4.8623    34.8800     0.0568     0.3307
  111    2.200   1619.99     0.0748     0.0036     0.0492     0.0220     0.0943     4.7886    35.2000     0.0591     0.4141
  112    2.220   1620.99     0.0782     0.0036     0.0575     0.0222     0.1007     4.6057    35.5200     0.0652     0.4803
  113    2.240   1621.94     0.0785     0.0034     0.0602     0.0224     0.1037     4.3878    35.8400     0.0679     0.5546
  114    2.260   1622.99     0.0804     0.0033     0.0510     0.0226     0.1025     4.0554    36.1600     0.0664     0.4546
  115    2.280   1623.94     0.0750     0.0030     0.0550     0.0228     0.0985     4.0422    36.4800     0.0620     0.5346
  116    2.300   1624.94     0.0726     0.0029     0.0571     0.0230     0.0957     3.9502    36.8000     0.0589     0.5434
  117    2.320   1625.94     0.0695     0.0028     0.0560     0.0232     0.0944     3.9500    37.1200     0.0573     0.6288
  118    2.340   1626.94     0.0650     0.0027     0.0576     0.0234     0.0892     4.1726    37.4400     0.0518     0.6618
  119    2.360   1627.90     0.0638     0.0029     0.0550     0.0236     0.0871     4.4840    37.7600     0.0494     0.6455
  120    2.380   1628.94     0.0652     0.0031     0.0512     0.0238     0.0869     4.7791    38.0800     0.0488     0.5698
  121    2.400   1629.89     0.0661     0.0034     0.0468     0.0240     0.0867     5.1113    38.4000     0.0483     0.5208
  122    2.420   1630.89     0.0663     0.0034     0.0346     0.0242     0.0823     5.0893    38.7200     0.0436     0.3151
  123    2.440   1631.84     0.0715     0.0033     0.0320     0.0244     0.0845     4.8491    39.0400     0.0455     0.1473
  124    2.460   1632.84     0.0790     0.0035     0.0452     0.0246     0.0956     4.4136    39.3600     0.0563     0.2638
  125    2.480   1633.84     0.0828     0.0035     0.0568     0.0248     0.1058     4.2614    39.6800     0.0661     0.4502
  126    2.500   1634.79     0.0805     0.0036     0.0602     0.0250     0.1057     4.3918    40.0000     0.0657     0.5312
  127    2.520   1635.81     0.0702     0.0038     0.0568     0.0252     0.0944     5.2473    40.3200     0.0541     0.6008
  128    2.540   1636.79     0.0727     0.0036     0.0529     0.0254     0.0954     5.1619    40.6400     0.0548     0.5254
  129    2.560   1637.77     0.0829     0.0036     0.0564     0.0256     0.1058     4.4195    40.9600     0.0648     0.4456
  130    2.580   1638.77     0.0975     0.0036     0.0554     0.0258     0.1210     3.7750    41.2800     0.0797     0.3800
  131    2.600   1639.74     0.1054     0.0037     0.0503     0.0260     0.1279     3.4912    41.6000     0.0863     0.3161
  132    2.620   1640.72     0.0931     0.0039     0.0548     0.0262     0.1176     4.1569    41.9200     0.0756     0.4218
  133    2.640   1641.69     0.0875     0.0039     0.0539     0.0264     0.1102     4.4439    42.2400     0.0680     0.4074
  134    2.660   1642.69     0.0881     0.0038     0.0622     0.0266     0.1128     4.3045    42.5600     0.0702     0.4561
  135    2.680   1643.69     0.0948     0.0038     0.0627     0.0268     0.1219     4.0462    42.8800     0.0790     0.4781
  136    2.700   1644.69     0.1040     0.0034     0.0561     0.0270     0.1284     3.3563    43.2000     0.0852     0.3640
  137    2.720   1645.68     0.1097     0.0035     0.0643     0.0272     0.1358     3.2221    43.5200     0.0923     0.3768
  138    2.740   1646.68     0.1137     0.0032     0.0662     0.0274     0.1417     2.8077    43.8400     0.0979     0.4018
  139    2.760   1647.65     0.1155     0.0034     0.0647     0.0276     0.1430     2.9374    44.1600     0.0988     0.3839
  140    2.780   1648.60     0.1111     0.0034     0.0644     0.0278     0.1392     3.0497    44.4800     0.0947     0.4109
  141    2.800   1649.60     0.1080     0.0034     0.0558     0.0280     0.1327     3.1005    44.8000     0.0879     0.3496
  142    2.820   1650.60     0.1053     0.0035     0.0574     0.0282     0.1287     3.3226    45.1200     0.0836     0.3302
  143    2.840   1651.60     0.1009     0.0034     0.0504     0.0284     0.1228     3.3962    45.4400     0.0774     0.3080
  144    2.860   1652.55     0.0947     0.0036     0.0456     0.0286     0.1139     3.7304    45.7600     0.0681     0.2518
  145    2.880   1653.55     0.0884     0.0038     0.0367     0.0288     0.1048     4.2332    46.0800     0.0587     0.1741
  146    2.900   1654.55     0.0838     0.0034     0.0326     0.0290     0.0971     3.9718    46.4000     0.0507     0.0510
  147    2.920   1655.55     0.0778     0.0032     0.0320     0.0292     0.0916     3.9889    46.7200     0.0448     0.0785
  148    2.940   1656.50     0.0713     0.0030     0.0337     0.0294     0.0849     4.1699    47.0400     0.0379     0.0787
  149    2.960   1657.50     0.0672     0.0028     0.0400     0.0296     0.0834     4.1572    47.3600     0.0361     0.2499
  150    2.980   1658.50     0.0633     0.0027     0.0399     0.0298     0.0809     4.1667    47.6800     0.0332     0.3595
  151    3.000   1659.50     0.0683     0.0025     0.0403     0.0300     0.0850     3.6689    48.0000     0.0370     0.2644
  152    3.020   1660.45     0.0756     0.0022     0.0401     0.0302     0.0928     2.9021    48.3200     0.0444     0.2396
  153    3.040   1661.50     0.0673     0.0019     0.0395     0.0304     0.0844     2.7136    48.6400     0.0357     0.2869
  154    3.060   1662.45     0.0515     0.0017     0.0340     0.0306     0.0678     3.0196    48.9600     0.0188     0.4460
  155    3.080   1663.45     0.0381     0.0016     0.0385     0.0308     0.0551     3.9489    49.2800     0.0058     1.7097
  156    3.100   1664.41     0.0423     0.0018     0.0417     0.0310     0.0584     4.3279    49.6000     0.0088     0.8390
  157    3.120   1665.40     0.0539     0.0021     0.0415     0.0312     0.0714     4.2008    49.9200     0.0215     0.5458
  158    3.140   1666.40     0.0795     0.0025     0.0419     0.0314     0.0972     3.3713    50.2400     0.0470     0.2334
  159    3.160   1667.40     0.1001     0.0028     0.0459     0.0316     0.1185     2.8588    50.5600     0.0680     0.1787
  160    3.180   1668.39     0.1064     0.0030     0.0449     0.0318     0.1257     2.8067    50.8800     0.0748     0.1878
  161    3.200   1669.40     0.1089     0.0032     0.0454     0.0320     0.1274     2.9060    51.2000     0.0762     0.1595
  162    3.220   1670.40     0.1136     0.0033     0.0513     0.0322     0.1337     2.9672    51.5200     0.0822     0.1906
  163    3.240   1671.36     0.1133     0.0035     0.0625     0.0324     0.1385     3.0285    51.8400     0.0866     0.3171
  164    3.260   1672.36     0.1085     0.0036     0.0623     0.0326     0.1351     3.2815    52.1600     0.0830     0.3729
  165    3.280   1673.35     0.1128     0.0035     0.0635     0.0328     0.1389     3.1706    52.4800     0.0864     0.3389
  166    3.300   1674.35     0.1265     0.0037     0.0669     0.0330     0.1538     2.9777    52.8000     0.1010     0.3159
  167    3.320   1675.35     0.1342     0.0037     0.0670     0.0332     0.1638     2.7975    53.1200     0.1107     0.3367
  168    3.340   1676.30     0.1333     0.0039     0.0629     0.0334     0.1585     2.8769    53.4400     0.1051     0.2542
  169    3.360   1677.30     0.1298     0.0039     0.0764     0.0336     0.1606     2.9626    53.7600     0.1069     0.3729
  170    3.380   1678.25     0.1272     0.0037     0.0770     0.0338     0.1597     2.8592    54.0800     0.1056     0.4123
  171    3.400   1679.28     0.1238     0.0039     0.0798     0.0340     0.1565     3.0988    54.4000     0.1021     0.4313
  172    3.420   1680.23     0.1198     0.0038     0.0745     0.0342     0.1526     3.1663    54.7200     0.0979     0.4484
  173    3.440   1681.20     0.1202     0.0040     0.0761     0.0344     0.1519     3.2990    55.0400     0.0969     0.4243
  174    3.460   1682.23     0.1176     0.0039     0.0793     0.0346     0.1505     3.2864    55.3600     0.0952     0.4602
  175    3.480   1683.34     0.1117     0.0038     0.0730     0.0348     0.1432     3.3949    55.6800     0.0875     0.4585
  176    3.500   1684.30     0.1083     0.0037     0.0740     0.0350     0.1392     3.3998    56.0000     0.0832     0.4621
  177    3.520   1685.34     0.1023     0.0038     0.0798     0.0352     0.1351     3.7007    56.3200     0.0787     0.5442
  178    3.540   1686.30     0.0976     0.0039     0.0774     0.0354     0.1305     4.0299    56.6400     0.0738     0.5796
  179    3.560   1687.30     0.1013     0.0039     0.0839     0.0356     0.1355     3.8709    56.9600     0.0786     0.5833
  180    3.580   1688.30     0.1081     0.0037     0.0857     0.0358     0.1444     3.4483    57.2800     0.0871     0.5829
  181    3.600   1689.28     0.1099     0.0037     0.0761     0.0360     0.1428     3.3779    57.6000     0.0852     0.4969
  182    3.620   1690.26     0.1130     0.0037     0.0790     0.0362     0.1456     3.3134    57.9200     0.0877     0.4714
  183    3.640   1691.26     0.1231     0.0038     0.0859     0.0364     0.1579     3.0871    58.2400     0.0996     0.4650
  184    3.660   1692.26     0.1317     0.0039     0.0923     0.0366     0.1689     3.0073    58.5600     0.1104     0.4704
  185    3.680   1693.23     0.1373     0.0056     0.0958     0.0368     0.1776     4.1139    58.8800     0.1187     0.4981
  186    3.700   1694.23     0.1403     0.0056     0.0953     0.0370     0.1803     4.0416    59.2000     0.1211     0.4819
  187    3.720   1695.21     0.1417     0.0056     0.0894     0.0372     0.1797     3.9452    59.5200     0.1202     0.4436
  188    3.740   1696.21     0.1431     0.0055     0.0875     0.0374     0.1815     3.8491    59.8400     0.1217     0.4448
  189    3.760   1699.98     0.1345     0.0054     0.0779     0.0376     0.1684     3.7404    60.1600     0.1083     0.4062
  190    3.780   1710.34     0.1245     0.0051     0.0605     0.0378     0.1534     4.3525    60.4800     0.0929     0.3448
  191    3.800   1711.40     0.1416     0.0050     0.0629     0.0380     0.1657     3.5043    60.8000     0.1049     0.1844
  192    3.820   1712.41     0.1328     0.0046     0.0752     0.0382     0.1630     3.4599    61.1200     0.1019     0.3316
  193    3.840   1713.41     0.1255     0.0044     0.0808     0.0384     0.1584     3.4606    61.4400     0.0969     0.4121
  194    3.860   1714.41     0.1169     0.0043     0.0819     0.0386     0.1507     3.6343    61.7600     0.0890     0.4704
  195    3.880   1715.36     0.1144     0.0042     0.0899     0.0388     0.1513     3.6528    62.0800     0.0892     0.5490
  196    3.900   1716.36     0.1152     0.0041     0.0935     0.0390     0.1540     3.6084    62.4000     0.0916     0.5823
  197    3.920   1717.31     0.1161     0.0040     0.0944     0.0392     0.1560     3.4508    62.7200     0.0932     0.5980
  198    3.940   1718.31     0.1183     0.0039     0.0943     0.0394     0.1574     3.2898    63.0400     0.0943     0.5686
  199    3.960   1719.26     0.1191     0.0039     0.0970     0.0396     0.1602     3.2590    63.3600     0.0968     0.6009
  200    3.980   1720.21     0.1214     0.0038     0.0926     0.0398     0.1600     3.1306    63.6800     0.0964     0.5422
  201    4.000   1721.21     0.1249     0.0038     0.0975     0.0400     0.1645     3.0429    64.0000     0.1005     0.5388
  202    4.020   1722.21     0.1274     0.0039     0.1027     0.0402     0.1704     3.0809    64.3200     0.1061     0.5876
  203    4.040   1723.21     0.1315     0.0040     0.1045     0.0404     0.1747     3.0243    64.6400     0.1101     0.5682
  204    4.060   1724.19     0.1345     0.0039     0.1068     0.0406     0.1791     2.8901    64.9600     0.1141     0.5732
  205    4.080   1725.16     0.1386     0.0040     0.1008     0.0408     0.1822     2.9288    65.2800     0.1170     0.5394
  206    4.100   1726.11     0.1444     0.0044     0.1022     0.0410     0.1874     3.0530    65.6000     0.1218     0.5036
  207    4.120   1727.11     0.1509     0.0048     0.1017     0.0412     0.1944     3.1773    65.9200     0.1285     0.4862
  208    4.140   1728.11     0.1506     0.0050     0.0965     0.0414     0.1914     3.3490    66.2400     0.1251     0.4452
  209    4.160   1729.10     0.1486     0.0050     0.0918     0.0416     0.1883     3.3569    66.5600     0.1218     0.4358
  210    4.180   1730.69     0.1453     0.0050     0.0827     0.0418     0.1798     3.4457    66.8800     0.1129     0.3579
  211    4.200   1742.22     0.1466     0.0051     0.0841     0.0420     0.1817     3.5083    67.2000     0.1145     0.3633
  212    4.220   1753.75     0.1479     0.0050     0.0855     0.0422     0.1836     3.4177    67.5200     0.1161     0.3686
  213    4.240   1764.11     0.1486     0.0045     0.0940     0.0424     0.1856     3.0638    67.8400     0.1178     0.3880
  214    4.260   1765.11     0.1476     0.0045     0.0940     0.0426     0.1874     3.0413    68.1600     0.1192     0.4368
  215    4.280   1766.11     0.1439     0.0043     0.0997     0.0428     0.1853     2.9534    68.4800     0.1168     0.4769
  216    4.300   1767.06     0.1450     0.0042     0.0980     0.0430     0.1869     2.8682    68.8000     0.1181     0.4802
  217    4.320   1768.06     0.1450     0.0040     0.1074     0.0432     0.1899     2.7780    69.1200     0.1208     0.5269
  218    4.340   1769.01     0.1557     0.0041     0.0953     0.0434     0.1973     2.7084    69.4400     0.1278     0.4336
  219    4.360   1770.01     0.1606     0.0041     0.0920     0.0436     0.1992     2.5715    69.7600     0.1295     0.3733
  220    4.380   1770.96     0.1603     0.0043     0.0843     0.0438     0.1953     2.6967    70.0800     0.1252     0.3164
  221    4.400   1771.96     0.1609     0.0045     0.0810     0.0440     0.1962     2.8005    70.4000     0.1258     0.3191
  222    4.420   1772.91     0.1615     0.0048     0.0764     0.0442     0.1929     2.9536    70.7200     0.1222     0.2507
  223    4.440   1773.86     0.1552     0.0050     0.0839     0.0444     0.1896     3.1706    71.0400     0.1185     0.3150
  224    4.460   1774.86     0.1503     0.0049     0.0933     0.0446     0.1884     3.2466    71.3600     0.1171     0.3953
  225    4.480   1775.83     0.1475     0.0047     0.0955     0.0448     0.1876     3.1523    71.6800     0.1159     0.4359
  226    4.500   1776.81     0.1452     0.0044     0.0979     0.0450     0.1854     3.0034    72.0000     0.1134     0.4486
  227    4.520   1777.78     0.1422     0.0043     0.1011     0.0452     0.1845     2.9748    72.3200     0.1122     0.4949
  228    4.540   1778.76     0.1395     0.0043     0.1023     0.0454     0.1822     3.0562    72.6400     0.1096     0.5141
  229    4.560   1779.71     0.1379     0.0041     0.1067     0.0456     0.1820     3.0048    72.9600     0.1090     0.5447
  230    4.580   1780.71     0.1371     0.0039     0.1112     0.0458     0.1835     2.8632    73.2800     0.1102     0.5864
  231    4.600   1781.71     0.1387     0.0039     0.1037     0.0460     0.1839     2.7920    73.6000     0.1103     0.5584
  232    4.620   1782.66     0.1399     0.0038     0.0991     0.0462     0.1827     2.6949    73.9200     0.1088     0.5138
  233    4.640   1783.66     0.1389     0.0038     0.0962     0.0464     0.1811     2.7222    74.2400     0.1069     0.5051
  234    4.660   1784.66     0.1398     0.0038     0.1036     0.0466     0.1833     2.7001    74.5600     0.1088     0.5246
  235    4.680   1785.65     0.1415     0.0039     0.0987     0.0468     0.1843     2.7436    74.8800     0.1094     0.5027
  236    4.700   1786.61     0.1409     0.0039     0.0973     0.0470     0.1821     2.7634    75.2000     0.1069     0.4786
  237    4.720   1787.61     0.1397     0.0042     0.0956     0.0472     0.1805     2.9941    75.5200     0.1050     0.4771
  238    4.740   1788.56     0.1375     0.0045     0.0982     0.0474     0.1791     3.2348    75.8400     0.1033     0.5004
  239    4.760   1789.56     0.1437     0.0047     0.1003     0.0476     0.1850     3.3645    76.1600     0.1089     0.4658
  240    4.780   1790.56     0.1463     0.0045     0.1011     0.0478     0.1885     3.1089    76.4800     0.1120     0.4706
  241    4.800   1791.51     0.1453     0.0046     0.1062     0.0480     0.1884     3.1398    76.8000     0.1116     0.4889
  242    4.820   1797.51     0.1455     0.0047     0.1046     0.0482     0.1899     3.2636    77.1200     0.1128     0.5107
  243    4.840   1808.24     0.1466     0.0047     0.1010     0.0484     0.1895     3.2447    77.4400     0.1121     0.4803
  244    4.860   1818.97     0.1477     0.0048     0.0978     0.0486     0.1891     3.2819    77.7600     0.1114     0.4498
  245    4.880   1822.21     0.1471     0.0046     0.0944     0.0488     0.1875     3.0989    78.0800     0.1094     0.4320
  246    4.900   1823.21     0.1456     0.0044     0.0945     0.0490     0.1854     3.0026    78.4000     0.1070     0.4279
  247    4.920   1824.20     0.1429     0.0042     0.1022     0.0492     0.1849     2.9147    78.7200     0.1062     0.4801
  248    4.940   1825.15     0.1407     0.0042     0.1151     0.0494     0.1874     2.9725    79.0400     0.1083     0.5700
  249    4.960   1826.11     0.1431     0.0041     0.1244     0.0496     0.1943     2.8895    79.3600     0.1149     0.6284
  250    4.980   1827.11     0.1469     0.0040     0.1272     0.0498     0.1997     2.7615    79.6800     0.1200     0.6324
  251    5.000   1828.10     0.1547     0.0043     0.1173     0.0500     0.2042     2.7875    80.0000     0.1242     0.5449
  252    5.020   1829.07     0.1644     0.0045     0.1120     0.0502     0.2111     2.7469    80.3200     0.1308     0.4666
  253    5.040   1830.07     0.1684     0.0046     0.1144     0.0504     0.2167     2.7677    80.6400     0.1361     0.4747
  254    5.060   1831.07     0.1719     0.0048     0.1086     0.0506     0.2183     2.8093    80.9600     0.1373     0.4361
  255    5.080   1832.02     0.1733     0.0049     0.1099     0.0508     0.2180     2.8117    81.2800     0.1368     0.4075
  256    5.100   1833.02     0.1715     0.0051     0.1106     0.0510     0.2179     2.9425    81.6000     0.1363     0.4362
  257    5.120   1834.02     0.1738     0.0054     0.1140     0.0512     0.2197     3.1196    81.9200     0.1378     0.4231
  258    5.140   1834.97     0.1758     0.0052     0.1186     0.0514     0.2255     2.9803    82.2400     0.1433     0.4676
  259    5.160   1836.02     0.1762     0.0055     0.1176     0.0516     0.2264     3.1297    82.5600     0.1438     0.4727
  260    5.180   1837.02     0.1814     0.0056     0.1109     0.0518     0.2290     3.0849    82.8800     0.1461     0.4212
  261    5.200   1837.97     0.1856     0.0055     0.1118     0.0520     0.2334     2.9547    83.2000     0.1502     0.4122
  262    5.220   1838.97     0.1841     0.0058     0.1143     0.0522     0.2307     3.1135    83.5200     0.1472     0.3989
  263    5.240   1839.97     0.1908     0.0058     0.1164     0.0524     0.2392     3.0836    83.8400     0.1554     0.4038
  264    5.260   1840.97     0.1976     0.0058     0.1171     0.0526     0.2471     2.9264    84.1600     0.1629     0.4010
  265    5.280   1841.92     0.1969     0.0058     0.1192     0.0528     0.2464     2.9424    84.4800     0.1619     0.4015
  266    5.300   1842.92     0.1974     0.0058     0.1120     0.0530     0.2451     2.9135    84.8000     0.1603     0.3782
  267    5.320   1843.88     0.1969     0.0057     0.1204     0.0532     0.2467     2.8655    85.1200     0.1616     0.4042
  268    5.340   1844.88     0.1979     0.0058     0.1181     0.0534     0.2476     2.9362    85.4400     0.1622     0.4000
  269    5.360   1845.87     0.1996     0.0060     0.1197     0.0536     0.2500     2.9993    85.7600     0.1643     0.4041
  270    5.380   1846.83     0.1987     0.0063     0.1157     0.0538     0.2487     3.1357    86.0800     0.1626     0.4011
  271    5.400   1847.83     0.1994     0.0062     0.1130     0.0540     0.2462     3.1343    86.4000     0.1598     0.3592
  272    5.420   1848.85     0.2082     0.0063     0.1093     0.0542     0.2551     3.0581    86.7200     0.1684     0.3414
  273    5.440   1849.82     0.2078     0.0062     0.0996     0.0544     0.2507     2.9780    87.0400     0.1636     0.2911
  274    5.460   1850.82     0.2056     0.0062     0.1020     0.0546     0.2477     3.0138    87.3600     0.1604     0.2849
  275    5.480   1851.79     0.2042     0.0060     0.0955     0.0548     0.2463     2.9555    87.6800     0.1587     0.2870
  276    5.500   1852.77     0.2028     0.0058     0.0881     0.0550     0.2409     2.8712    88.0000     0.1529     0.2335
  277    5.520   1853.77     0.2001     0.0060     0.0828     0.0552     0.2353     2.9655    88.3200     0.1470     0.1955
  278    5.540   1854.72     0.2024     0.0062     0.0908     0.0554     0.2389     3.0832    88.6400     0.1503     0.2101
  279    5.560   1855.72     0.2078     0.0062     0.0884     0.0556     0.2464     2.9831    88.9600     0.1575     0.2309
  280    5.580   1856.72     0.2073     0.0063     0.0823     0.0558     0.2420     3.0680    89.2800     0.1527     0.1761
  281    5.600   1857.72     0.2083     0.0065     0.0771     0.0560     0.2404     3.1188    89.6000     0.1508     0.1358
  282    5.620   1858.70     0.2044     0.0066     0.0822     0.0562     0.2379     3.2215    89.9200     0.1479     0.1595
  283    5.640   1859.67     0.1980     0.0064     0.0896     0.0564     0.2350     3.2150    90.2400     0.1447     0.2192
  284    5.660   1860.65     0.1963     0.0065     0.0937     0.0566     0.2351     3.2610    90.5600     0.1445     0.2467
  285    5.680   1861.61     0.1969     0.0070     0.0918     0.0568     0.2358     3.5271    90.8800     0.1449     0.2465
  286    5.700   1862.61     0.1924     0.0074     0.0930     0.0570     0.2309     3.7904    91.2000     0.1397     0.2480
  287    5.720   1863.57     0.1909     0.0074     0.0946     0.0572     0.2307     3.8513    91.5200     0.1392     0.2710
  288    5.740   1864.56     0.1981     0.0071     0.1048     0.0574     0.2416     3.6896    91.8400     0.1497     0.3080
  289    5.760   1865.60     0.2025     0.0068     0.0987     0.0576     0.2444     3.3737    92.1600     0.1523     0.2769
  290    5.780   1871.37     0.1987     0.0067     0.0958     0.0578     0.2394     3.3081    92.4800     0.1469     0.2650
  291    5.800   1877.15     0.1949     0.0065     0.0957     0.0580     0.2343     3.2383    92.8000     0.1415     0.2530
  292    5.820   1879.27     0.1909     0.0064     0.1156     0.0582     0.2369     3.3535    93.1200     0.1438     0.3570
  293    5.840   1880.27     0.1856     0.0060     0.1229     0.0584     0.2371     3.2094    93.4400     0.1436     0.4464
  294    5.860   1881.22     0.1790     0.0057     0.1205     0.0586     0.2298     3.1674    93.7600     0.1360     0.4590
  295    5.880   1882.20     0.1734     0.0056     0.1321     0.0588     0.2270     3.2182    94.0800     0.1329     0.5164
  296    5.900   1883.17     0.1728     0.0054     0.1374     0.0590     0.2304     3.1580    94.4000     0.1360     0.5732
  297    5.920   1884.12     0.1722     0.0053     0.1411     0.0592     0.2309     3.0869    94.7200     0.1362     0.5923
  298    5.940   1885.12     0.1698     0.0052     0.1392     0.0594     0.2292     3.0869    95.0400     0.1342     0.6122
  299    5.960   1886.07     0.1694     0.0053     0.1385     0.0596     0.2263     3.0993    95.3600     0.1309     0.5802
  300    5.980   1887.07     0.1687     0.0052     0.1359     0.0598     0.2268     3.0462    95.6800     0.1311     0.5987
  301    6.000   1888.02     0.1686     0.0050     0.1377     0.0600     0.2237     2.9548    96.0000     0.1277     0.5579
  302    6.020   1889.02     0.1692     0.0048     0.1445     0.0602     0.2291     2.8522    96.3200     0.1328     0.6216
  303    6.040   1889.97     0.1689     0.0048     0.1471     0.0604     0.2290     2.8215    96.6400     0.1323     0.6239
  304    6.060   1890.97     0.1699     0.0048     0.1445     0.0606     0.2315     2.8042    96.9600     0.1345     0.6391
  305    6.080   1891.92     0.1666     0.0048     0.1504     0.0608     0.2281     2.8785    97.2800     0.1308     0.6549
  306    6.100   1892.92     0.1727     0.0047     0.1560     0.0610     0.2382     2.7954    97.6000     0.1406     0.6749
  307    6.120   1893.87     0.1807     0.0050     0.1492     0.0612     0.2443     2.8651    97.9200     0.1463     0.6168
  308    6.140   1894.87     0.1826     0.0053     0.1474     0.0614     0.2446     2.9348    98.2400     0.1463     0.5886
  309    6.160   1895.82     0.1852     0.0056     0.1456     0.0616     0.2467     3.0322    98.5600     0.1482     0.5732
  310    6.180   1896.82     0.1913     0.0055     0.1431     0.0618     0.2519     2.9319    98.8800     0.1530     0.5393
  311    6.200   1897.82     0.1939     0.0054     0.1381     0.0620     0.2524     2.8144    99.2000     0.1532     0.5049
  312    6.220   1910.11     0.1940     0.0054     0.1360     0.0622     0.2514     2.7586    99.5200     0.1519     0.4902
  313    6.240   1924.92     0.1932     0.0054     0.1338     0.0624     0.2497     2.7720    99.8400     0.1499     0.4812
  314    6.260   1938.10     0.1924     0.0054     0.1386     0.0626     0.2488     2.7978   100.1600     0.1486     0.4814
  315    6.280   1939.02     0.1941     0.0055     0.1462     0.0628     0.2556     2.8631   100.4800     0.1552     0.5394
  316    6.300   1940.02     0.1927     0.0055     0.1426     0.0630     0.2524     2.8306   100.8000     0.1516     0.5225
  317    6.320   1941.02     0.1924     0.0054     0.1477     0.0632     0.2543     2.8222   101.1200     0.1531     0.5497
  318    6.340   1941.97     0.1929     0.0055     0.1389     0.0634     0.2529     2.8568   101.4400     0.1515     0.5246
  319    6.360   1942.97     0.1892     0.0054     0.1376     0.0636     0.2461     2.8376   101.7600     0.1444     0.4977
  320    6.380   1943.92     0.1846     0.0053     0.1415     0.0638     0.2433     2.8554   102.0800     0.1412     0.5385
  321    6.400   1944.92     0.1825     0.0051     0.1418     0.0640     0.2421     2.7924   102.4000     0.1397     0.5570
  322    6.420   1945.88     0.1782     0.0050     0.1480     0.0642     0.2391     2.7992   102.7200     0.1364     0.5931
  323    6.440   1946.87     0.1739     0.0049     0.1534     0.0644     0.2380     2.7986   103.0400     0.1350     0.6542
  324    6.460   1947.83     0.1758     0.0050     0.1536     0.0646     0.2408     2.8369   103.3600     0.1374     0.6547
  325    6.480   1948.83     0.1805     0.0050     0.1469     0.0648     0.2429     2.7999   103.6800     0.1392     0.6020
  326    6.500   1949.77     0.1855     0.0051     0.1433     0.0650     0.2461     2.7575   104.0000     0.1421     0.5589
  327    6.520   1950.59     0.1873     0.0052     0.1342     0.0652     0.2466     2.7411   104.3200     0.1423     0.5330
  328    6.540   1951.39     0.1829     0.0051     0.1345     0.0654     0.2389     2.7862   104.6400     0.1343     0.5069
  329    6.560   1952.22     0.1770     0.0050     0.1370     0.0656     0.2340     2.8201   104.9600     0.1290     0.5434
  330    6.580   1953.24     0.1762     0.0044     0.1449     0.0658     0.2357     2.5009   105.2800     0.1305     0.5838
  331    6.600   1954.24     0.1712     0.0048     0.1564     0.0660     0.2343     2.8163   105.6000     0.1287     0.6543
  332    6.620   1955.17     0.1745     0.0050     0.1545     0.0662     0.2411     2.9076   105.9200     0.1352     0.6841
  333    6.640   1956.15     0.1788     0.0050     0.1583     0.0664     0.2454     2.8023   106.2400     0.1391     0.6617
  334    6.660   1957.12     0.1831     0.0053     0.1579     0.0666     0.2502     3.0627   106.5600     0.1436     0.6488
  335    6.680   1958.20     0.1948     0.0060     0.1611     0.0668     0.2609     3.7316   106.8800     0.1540     0.5874
  336    6.700   1960.42     0.1895     0.0065     0.1500     0.0670     0.2549     3.5787   107.2000     0.1477     0.6104
  337    6.720   1961.42     0.1977     0.0064     0.1536     0.0672     0.2612     3.2366   107.5200     0.1537     0.5465
  338    6.740   1962.42     0.1980     0.0062     0.1560     0.0674     0.2628     3.1118   107.8400     0.1550     0.5600
  339    6.760   1963.46     0.1953     0.0061     0.1600     0.0676     0.2628     3.6853   108.1600     0.1547     0.6029
  340    6.780   1969.79     0.1974     0.0061     0.1564     0.0678     0.2636     3.9394   108.4800     0.1551     0.5792
  341    6.800   1976.29     0.1996     0.0059     0.1572     0.0680     0.2643     3.3137   108.8000     0.1555     0.5530
  342    6.820   1977.47     0.1977     0.0056     0.1635     0.0682     0.2661     2.8620   109.1200     0.1570     0.6038
  343    6.840   1978.47     0.2014     0.0058     0.1551     0.0684     0.2675     2.9174   109.4400     0.1580     0.5623
  344    6.860   1979.47     0.2098     0.0059     0.1594     0.0686     0.2755     2.8150   109.7600     0.1657     0.5291
  345    6.880   1980.42     0.2166     0.0060     0.1691     0.0688     0.2879     2.7886   110.0800     0.1779     0.5678
  346    6.900   1981.42     0.2199     0.0060     0.1453     0.0690     0.2836     2.7615   110.4000     0.1732     0.4769
  347    6.920   1982.37     0.2184     0.0060     0.1568     0.0692     0.2807     2.7603   110.7200     0.1699     0.4653
  348    6.940   1983.37     0.2146     0.0061     0.1630     0.0694     0.2845     2.8342   111.0400     0.1734     0.5591
  349    6.960   1984.32     0.2138     0.0063     0.1591     0.0696     0.2802     2.9502   111.3600     0.1689     0.5245
  350    6.980   1985.32     0.2137     0.0062     0.1697     0.0698     0.2833     2.8706   111.6800     0.1716     0.5589
  351    7.000   1986.30     0.2155     0.0061     0.1751     0.0700     0.2881     2.8368   112.0000     0.1761     0.5838
  352    7.020   1987.27     0.2169     0.0062     0.1780     0.0702     0.2909     2.8805   112.3200     0.1786     0.5937
  353    7.040   1988.24     0.2173     0.0063     0.1811     0.0704     0.2940     2.8740   112.6400     0.1814     0.6193
  354    7.060   1989.20     0.2164     0.0062     0.1797     0.0706     0.2922     2.8724   112.9600     0.1793     0.6125
  355    7.080   1990.20     0.2222     0.0060     0.1753     0.0708     0.2952     2.7156   113.2800     0.1820     0.5664
  356    7.100   1991.15     0.2235     0.0061     0.1833     0.0710     0.2994     2.7145   113.6000     0.1858     0.5912
  357    7.120   1992.12     0.2195     0.0061     0.1773     0.0712     0.2949     2.7847   113.9200     0.1810     0.5983
  358    7.140   1993.07     0.2188     0.0062     0.1883     0.0714     0.2981     2.8143   114.2400     0.1839     0.6385
  359    7.160   1994.07     0.2180     0.0064     0.1943     0.0716     0.2977     2.9397   114.5600     0.1832     0.6455
  360    7.180   1995.07     0.2202     0.0064     0.1942     0.0718     0.3029     2.9012   114.8800     0.1880     0.6661
  361    7.200   1996.02     0.2312     0.0065     0.1935     0.0720     0.3118     2.8283   115.2000     0.1966     0.6104
  362    7.220   1997.02     0.2373     0.0065     0.1917     0.0722     0.3182     2.7645   115.5200     0.2027     0.5940
  363    7.240   1998.02     0.2407     0.0064     0.1924     0.0724     0.3209     2.6847   115.8400     0.2050     0.5778
  364    7.260   1998.97     0.2424     0.0066     0.1975     0.0726     0.3248     2.7429   116.1600     0.2086     0.5917
  365    7.280   1999.96     0.2439     0.0068     0.2001     0.0728     0.3280     2.7747   116.4800     0.2115     0.6019
  366    7.300   2000.88     0.2457     0.0067     0.1991     0.0730     0.3298     2.7505   116.8000     0.2130     0.5978
  367    7.320   2001.88     0.2481     0.0069     0.1961     0.0732     0.3304     2.7743   117.1200     0.2133     0.5755
  368    7.340   2002.87     0.2489     0.0075     0.1952     0.0734     0.3306     2.9837   117.4400     0.2132     0.5681
  369    7.360   2003.82     0.2579     0.0082     0.1939     0.0736     0.3406     3.1932   117.7600     0.2228     0.5531
  370    7.380   2004.82     0.2633     0.0089     0.1898     0.0738     0.3426     3.3871   118.0800     0.2245     0.5120
  371    7.400   2005.77     0.2688     0.0091     0.1905     0.0740     0.3494     3.4134   118.4000     0.2310     0.5110
  372    7.420   2006.74     0.2699     0.0092     0.1894     0.0742     0.3489     3.4178   118.7200     0.2302     0.4946
  373    7.440   2018.59     0.2725     0.0092     0.1920     0.0744     0.3527     3.4099   119.0400     0.2337     0.4993
  374    7.460   2034.73     0.2749     0.0093     0.1947     0.0746     0.3563     3.4201   119.3600     0.2370     0.5027
  375    7.480   2050.87     0.2774     0.0091     0.2001     0.0748     0.3599     3.2943   119.6800     0.2402     0.5061
  376    7.500   2053.57     0.2762     0.0088     0.2118     0.0750     0.3642     3.2003   120.0000     0.2442     0.5501
  377    7.520   2054.18     0.2787     0.0086     0.2174     0.0752     0.3693     3.0901   120.3200     0.2490     0.5647
  378    7.540   2054.85     0.2840     0.0084     0.2193     0.0754     0.3762     2.9691   120.6400     0.2556     0.5636
  379    7.560   2055.48     0.2943     0.0089     0.2147     0.0756     0.3845     3.0181   120.9600     0.2636     0.5284
  380    7.580   2056.14     0.3112     0.0088     0.2160     0.0758     0.4016     2.8487   121.2800     0.2803     0.4977
  381    7.600   2056.76     0.3264     0.0090     0.2208     0.0760     0.4184     2.7627   121.6000     0.2968     0.4816
  382    7.620   2057.41     0.3381     0.0090     0.2170     0.0762     0.4308     2.6827   121.9200     0.3089     0.4678
  383    7.640   2058.04     0.3390     0.0092     0.2034     0.0764     0.4257     2.7152   122.2400     0.3035     0.4288
  384    7.660   2058.68     0.3420     0.0098     0.2114     0.0766     0.4280     2.8391   122.5600     0.3055     0.4202
  385    7.680   2059.32     0.3434     0.0134     0.2176     0.0768     0.4341     3.9591   122.8800     0.3112     0.4472
  386    7.700   2059.95     0.3457     0.0117     0.2251     0.0770     0.4396     3.3881   123.2000     0.3164     0.4630
  387    7.720   2060.61     0.3427     0.0120     0.2219     0.0772     0.4373     3.4717   123.5200     0.3138     0.4717
  388    7.740   2061.28     0.3372     0.0120     0.2164     0.0774     0.4288     3.5281   123.8400     0.3049     0.4614
  389    7.760   2093.22     0.2822     0.0120     0.2021     0.0776     0.3692     4.6804   124.1600     0.2450     0.5403
  390    7.780   2115.08     0.2595     0.0117     0.1799     0.0778     0.3422     4.7215   124.4800     0.2177     0.5571
  391    7.800   2116.17     0.3329     0.0113     0.1882     0.0780     0.4073     3.4334   124.8000     0.2825     0.3506
  392    7.820   2117.80     0.2959     0.0111     0.2015     0.0782     0.3803     4.0002   125.1200     0.2552     0.4869
  393    7.840   2118.82     0.3105     0.0108     0.2170     0.0784     0.3993     3.4586   125.4400     0.2739     0.4861
  394    7.860   2119.82     0.2947     0.0100     0.2230     0.0786     0.3883     3.3596   125.7600     0.2626     0.5499
  395    7.880   2120.84     0.2913     0.0094     0.2241     0.0788     0.3848     3.2135   126.0800     0.2587     0.5561
  396    7.900   2121.82     0.2837     0.0088     0.2344     0.0790     0.3803     3.0768   126.4000     0.2539     0.5951
  397    7.920   2122.79     0.2803     0.0084     0.2440     0.0792     0.3819     3.0035   126.7200     0.2552     0.6380
  398    7.940   2123.77     0.2768     0.0078     0.2430     0.0794     0.3787     2.8305   127.0400     0.2516     0.6487
  399    7.960   2124.72     0.2779     0.0074     0.2424     0.0796     0.3803     2.6829   127.3600     0.2529     0.6496
  400    7.980   2125.69     0.2840     0.0075     0.2349     0.0798     0.3839     2.6605   127.6800     0.2562     0.6168
  401    8.000   2126.70     0.2994     0.0077     0.2407     0.0800     0.4015     2.6273   128.0000     0.2735     0.5970
  402    8.020   2127.67     0.3082     0.0077     0.2399     0.0802     0.4106     2.5130   128.3200     0.2823     0.5795
  403    8.040   2128.67     0.3159     0.0078     0.2301     0.0804     0.4138     2.4732   128.6400     0.2852     0.5357
  404    8.060   2129.67     0.3258     0.0076     0.2016     0.0806     0.4147     2.3546   128.9600     0.2858     0.4591
  405    8.080   2130.65     0.3308     0.0079     0.2073     0.0808     0.4193     2.3807   129.2800     0.2900     0.4483
  406    8.100   2131.65     0.3333     0.0077     0.2269     0.0810     0.4270     2.3326   129.6000     0.2974     0.4782
  407    8.120   2132.65     0.3379     0.0075     0.2303     0.0812     0.4337     2.2358   129.9200     0.3038     0.4838
  408    8.140   2133.62     0.3415     0.0074     0.2294     0.0814     0.4368     2.1547   130.2400     0.3066     0.4750
  409    8.160   2134.62     0.3341     0.0075     0.2038     0.0816     0.4212     2.2328   130.5600     0.2907     0.4330
  410    8.180   2135.89     0.3367     0.0075     0.2180     0.0818     0.4257     2.3640   130.8800     0.2949     0.4416
  411    8.200   2152.10     0.3486     0.0072     0.2112     0.0820     0.4383     2.6836   131.2000     0.3071     0.4288
  412    8.220   2167.24     0.3534     0.0070     0.1977     0.0822     0.4391     1.9604   131.5200     0.3076     0.3959
  413    8.240   2168.24     0.3479     0.0074     0.1913     0.0824     0.4283     2.1273   131.8400     0.2964     0.3676
  414    8.260   2169.24     0.3532     0.0071     0.1946     0.0826     0.4342     2.0055   132.1600     0.3020     0.3644
  415    8.280   2170.22     0.3404     0.0069     0.2113     0.0828     0.4269     2.0132   132.4800     0.2944     0.4179
  416    8.300   2171.20     0.3261     0.0068     0.1925     0.0830     0.4099     2.0718   132.8000     0.2771     0.4207
  417    8.320   2172.22     0.3131     0.0074     0.1821     0.0832     0.3883     2.3283   133.1200     0.2551     0.3758
  418    8.340   2173.22     0.3044     0.0070     0.2114     0.0834     0.3864     2.3329   133.4400     0.2529     0.4412
  419    8.360   2174.17     0.3373     0.0083     0.2331     0.0836     0.4327     2.5671   133.7600     0.2990     0.4815
  420    8.380   2175.17     0.5041     0.0113     0.2113     0.0838     0.5974     2.4837   134.0800     0.4633     0.3074
  421    8.400   2176.15     0.9235     0.0161     0.1968     0.0840     1.0082     1.9381   134.4000     0.8738     0.1388
  422    8.420   2177.15     1.6088     0.0215     0.0989     0.0842     1.6669     1.4203   134.7200     1.5321     0.0371
  423    8.440   2178.12     2.3053     0.0244     0.0409     0.0844     2.3336     1.1017   135.0400     2.1985    -0.0073
  424    8.460   2179.12     2.9742     0.0252     0.0365     0.0846     2.9893     0.8636   135.3600     2.8540    -0.0171
  425    8.480   2180.12     3.4276     0.0262     0.0466     0.0848     3.4455     0.7764   135.6800     3.3098    -0.0128
  426    8.500   2181.12     3.8765     0.0284     0.0732     0.0850     3.9006     0.7382   136.0000     3.7646    -0.0074
  427    8.520   2182.12     4.4598     0.0299     0.0738     0.0852     4.4916     0.6849   136.3200     4.3553    -0.0022
  428    8.540   2183.12     5.2256     0.0313     0.0597     0.0854     5.2510     0.6019   136.6400     5.1144    -0.0049
  429    8.560   2184.12     5.6955     0.0323     0.0387     0.0856     5.7153     0.5716   136.9600     5.5784    -0.0069
  430    8.580   2185.12     6.1335     0.0344     0.0043     0.0858     6.1451     0.5631   137.2800     6.0078    -0.0097
  431    8.600   2186.17     6.6617     0.0358     0.0026     0.0860     6.6625     0.5405   137.6000     6.5249    -0.0129
  432    8.620   2187.12     6.9876     0.0367    -0.0051     0.0862     6.9846     0.5384   137.9200     6.8466    -0.0136
  433    8.640   2188.13     7.3358     0.0391     0.0280     0.0864     7.3443     0.5453   138.2400     7.2061    -0.0092
  434    8.660   2189.12     7.6957     0.0435     0.0443     0.0866     7.7120     0.5667   138.5600     7.5734    -0.0063
  435    8.680   2190.17     8.2679     0.0478     0.0726     0.0868     8.2945     0.5880   138.8800     8.1556    -0.0029
  436    8.700   2191.17     8.9478     0.0520     0.0849     0.0870     8.9814     0.6020   139.2000     8.8422    -0.0008
  437    8.720   2192.22     9.8105     0.0547     0.0857     0.0872     9.8476     0.5823   139.5200     9.7081     0.0001
  438    8.740   2193.22    10.6398     0.0572     0.0768     0.0874    10.6734     0.5567   139.8400    10.5335    -0.0007
  439    8.760   2196.97    10.6797     0.0596     0.0711     0.0876    10.7103     0.5501   140.1600    10.5702    -0.0014
  440    8.780   2201.80    10.4743     0.0613     0.0654     0.0878    10.5026     0.5661   140.4800    10.3621    -0.0020
  441    8.800   2206.63    10.2690     0.0607     0.0609     0.0880    10.2948     0.5762   140.8000    10.1540    -0.0026
  442    8.820   2208.34    10.1503     0.0591     0.0665     0.0882    10.1768     0.5816   141.1200    10.0357    -0.0025
  443    8.840   2209.37     9.8682     0.0568     0.0739     0.0884     9.8991     0.5726   141.4400     9.7577    -0.0015
  444    8.860   2210.37     9.4832     0.0540     0.0742     0.0886     9.5144     0.5654   141.7600     9.3726    -0.0015
  445    8.880   2211.37     8.9668     0.0514     0.0766     0.0888     8.9988     0.5686   142.0800     8.8567    -0.0014
  446    8.900   2212.37     8.3308     0.0472     0.0756     0.0890     8.3629     0.5573   142.4000     8.2205    -0.0015
  447    8.920   2213.35     7.6544     0.0432     0.0774     0.0892     7.6861     0.5542   142.7200     7.5433    -0.0018
  448    8.940   2214.32     6.9903     0.0414     0.0796     0.0894     7.0240     0.5806   143.0400     6.8810    -0.0013
  449    8.960   2215.32     6.1865     0.0407     0.0735     0.0896     6.2176     0.6391   143.3600     6.0743    -0.0026
  450    8.980   2216.32     5.2993     0.0421     0.0700     0.0898     5.3294     0.7667   143.6800     5.1857    -0.0036
  451    9.000   2217.29     4.3299     0.0456     0.0734     0.0900     4.3607     1.0097   144.0000     4.2167    -0.0040
  452    9.020   2218.27     3.3323     0.0485     0.0781     0.0902     3.3636     1.3943   144.3200     3.2192    -0.0049
  453    9.040   2219.25     2.4562     0.0508     0.0845     0.0904     2.4910     1.9584   144.6400     2.3464    -0.0032
  454    9.060   2220.25     1.7584     0.0485     0.0910     0.0906     1.7960     2.6550   144.9600     1.6511    -0.0006
  455    9.080   2221.22     1.2914     0.0441     0.1123     0.0908     1.3332     3.3065   145.2800     1.1879     0.0081
  456    9.100   2222.22     0.9692     0.0402     0.1171     0.0910     1.0170     4.0441   145.6000     0.8714     0.0264
  457    9.120   2223.22     0.8070     0.0359     0.1415     0.0912     0.8635     4.3368   145.9200     0.7175     0.0608
  458    9.140   2224.17     0.6607     0.0300     0.1881     0.0914     0.7257     4.4947   146.2400     0.5794     0.1104
  459    9.160   2225.22     0.5099     0.0217     0.2755     0.0916     0.6216     4.1565   146.5600     0.4751     0.3689
  460    9.180   2226.22     0.4437     0.0123     0.2841     0.0918     0.5619     2.7760   146.8800     0.4150     0.4568
  461    9.200   2227.17     0.4699     0.0112     0.3572     0.0920     0.6073     2.5039   147.2000     0.4601     0.5104
  462    9.220   2228.17     0.5704     0.0139     0.3930     0.0922     0.7320     2.7171   147.5200     0.5845     0.5029
  463    9.240   2229.19     0.8998     0.0278     0.3868     0.0924     1.0648     3.9841   147.8400     0.9170     0.3369
  464    9.260   2230.22     2.6216     0.0467     0.2530     0.0926     2.7550     3.4235   148.1600     2.6069     0.0993
  465    9.280   2231.24     6.2643     0.0553     0.0611     0.0928     6.3109     1.2785   148.4800     6.1624     0.0040
  466    9.300   2232.27     8.9885     0.0551     0.0491     0.0930     9.0115     0.7006   148.8000     8.8627    -0.0044
  467    9.320   2233.30     9.9382     0.0581    -0.0493     0.0932     9.9299     0.5998   149.1200     9.7807    -0.0115
  468    9.340   2234.30     9.9102     0.0581    -0.0257     0.0934     9.8883     0.5787   149.4400     9.7389    -0.0149
  469    9.360   2235.32     9.9384     0.0560    -0.0160     0.0936     9.9335     0.5711   149.7600     9.7837    -0.0108
  470    9.380   2236.36    11.0000     0.0548    -0.0751     0.0938    10.9803     0.5146   150.0800    10.8303    -0.0129
  471    9.400   2237.37    12.3177     0.0537    -0.1442     0.0940    12.2683     0.4429   150.4000    12.1179    -0.0174
  472    9.420   2238.42    13.7789     0.0545    -0.1951     0.0942    13.6991     0.4060   150.7200    13.5484    -0.0210
  473    9.440   2239.47    15.1293     0.0602    -0.2205     0.0944    15.0350     0.4119   151.0400    14.8839    -0.0214
  474    9.460   2240.42    16.2007     0.0684    -0.2081     0.0946    16.1120     0.4290   151.3600    15.9607    -0.0192
  475    9.480   2241.42    16.9928     0.0746    -0.1771     0.0948    16.9121     0.4463   151.6800    16.7604    -0.0171
  476    9.500   2242.37    17.5894     0.0820    -0.1137     0.0950    17.5317     0.4704   152.0000    17.3797    -0.0134
  477    9.520   2243.32    17.9569     0.0892    -0.0370     0.0952    17.9298     0.4990   152.3200    17.7774    -0.0090
  478    9.540   2244.25    18.1719     0.0970     0.0148     0.0954    18.1727     0.5357   152.6400    18.0200    -0.0052
  479    9.560   2245.25    18.4206     0.1032     0.0540     0.0956    18.4401     0.5633   152.9600    18.2872    -0.0027
  480    9.580   2246.20    18.7017     0.1050     0.0562     0.0958    18.7246     0.5642   153.2800    18.5713    -0.0022
  481    9.600   2247.17    18.8578     0.1078     0.0731     0.0960    18.8859     0.5725   153.6000    18.7323    -0.0016
  482    9.620   2248.08    18.8808     0.1126     0.0853     0.0962    18.9153     0.5963   153.9200    18.7614    -0.0008
  483    9.640   2249.07    18.8096     0.1168     0.0873     0.0964    18.8454     0.6207   154.2400    18.6911    -0.0006
  484    9.660   2250.02    18.6078     0.1165     0.0891     0.0966    18.6463     0.6268   154.5600    18.4918    -0.0003
  485    9.680   2250.97    18.3727     0.1162     0.0984     0.0968    18.4121     0.6329   154.8800    18.2572    -0.0002
  486    9.700   2251.97    18.0021     0.1147     0.0950     0.0970    18.0416     0.6346   155.2000    17.8864    -0.0002
  487    9.720   2252.92    17.5990     0.1135     0.0955     0.0972    17.6395     0.6428   155.5200    17.4839     0.0000
  488    9.740   2253.84    17.2672     0.1150     0.0943     0.0974    17.3067     0.6650   155.8400    17.1509    -0.0002
  489    9.760   2257.68    17.3695     0.1144     0.0965     0.0976    17.4097     0.6643   156.1600    17.2536    -0.0001
  490    9.780   2262.17    17.5555     0.1116     0.0987     0.0978    17.5967     0.6482   156.4800    17.4402     0.0000
  491    9.800   2266.65    17.7416     0.1078     0.0988     0.0980    17.7836     0.6221   156.8000    17.6268     0.0001
  492    9.820   2267.92    18.4835     0.1074     0.0841     0.0982    18.5227     0.5907   157.1200    18.3655    -0.0003
  493    9.840   2268.87    19.2954     0.1074     0.0000     0.0984    19.3080     0.5663   157.4400    19.1506    -0.0036
  494    9.860   2269.84    20.1567     0.1108    -0.0376     0.0986    20.1444     0.5578   157.7600    19.9867    -0.0064
  495    9.880   2270.79    20.8837     0.1152    -0.0347     0.0988    20.8669     0.5578   158.0800    20.7088    -0.0067
  496    9.900   2271.75    21.4490     0.1215    -0.0139     0.0990    21.4399     0.5715   158.4000    21.2815    -0.0057
  497    9.920   2272.70    21.8515     0.1298     0.0102     0.0992    21.8535     0.5968   158.7200    21.6948    -0.0043
  498    9.940   2273.66    22.0628     0.1387     0.0356     0.0994    22.0744     0.6303   159.0400    21.9154    -0.0033
  499    9.960   2274.62    22.2619     0.1467     0.0554     0.0996    22.2823     0.6609   159.3600    22.1229    -0.0023
  500    9.980   2275.61    22.5530     0.1518     0.0826     0.0998    22.5852     0.6766   159.6800    22.4255    -0.0010
  501   10.000   2276.57    22.8778     0.1541     0.0935     0.1000    22.9139     0.6770   160.0000    22.7539    -0.0006
  502   10.020   2277.52    23.0699     0.1566     0.0896     0.1002    23.1098     0.6800   160.3200    22.9494    -0.0002
  503   10.040   2278.47    23.3323     0.1591     0.0940     0.1004    23.3703     0.6836   160.6400    23.2096    -0.0004
  504   10.060   2279.43    23.5479     0.1608     0.0977     0.1006    23.5879     0.6846   160.9600    23.4269    -0.0002
  505   10.080   2280.39    23.8326     0.1616     0.0895     0.1008    23.8714     0.6798   161.2800    23.7101    -0.0003
  506   10.100   2281.34    24.0924     0.1599     0.0940     0.1010    24.1313     0.6655   161.6000    23.9697    -0.0004
  507   10.120   2282.36    24.3511     0.1572     0.0946     0.1012    24.3904     0.6476   161.9200    24.2285    -0.0003
  508   10.140   2283.32    24.5841     0.1545     0.0999     0.1014    24.6250     0.6299   162.2400    24.4627    -0.0002
  509   10.160   2284.32    24.8241     0.1544     0.0899     0.1016    24.8641     0.6255   162.5600    24.7015    -0.0003
  510   10.180   2285.32    25.2737     0.1554     0.0934     0.1018    25.3118     0.6202   162.8800    25.1489    -0.0004
  511   10.200   2290.03    25.8672     0.1547     0.0952     0.1020    25.9076     0.6028   163.2000    25.7444    -0.0002
  512   10.220   2304.75    26.5333     0.1560     0.0924     0.1022    26.5726     0.6073   163.5200    26.4090    -0.0003
  513   10.240   2319.47    27.1995     0.1598     0.0896     0.1024    27.2376     0.6221   163.8400    27.0737    -0.0004
  514   10.260   2325.63    27.9701     0.1650     0.0807     0.1026    28.0024     0.5925   164.1600    27.8383    -0.0009
  515   10.280   2326.61    28.6641     0.1704     0.0838     0.1028    28.6998     0.5970   164.4800    28.5353    -0.0006
  516   10.300   2327.58    29.2553     0.1711     0.0817     0.1030    29.2881     0.5866   164.8000    29.1233    -0.0009
  517   10.320   2328.53    29.5807     0.1694     0.0903     0.1032    29.6152     0.5734   165.1200    29.4500    -0.0007
  518   10.340   2329.58    29.6417     0.1637     0.1023     0.1034    29.6815     0.5523   165.4400    29.5161    -0.0003
  519   10.360   2330.58    29.6467     0.1604     0.1006     0.1036    29.6881     0.5412   165.7600    29.5223    -0.0002
  520   10.380   2331.53    29.6053     0.1582     0.1006     0.1038    29.6474     0.5342   166.0800    29.4813    -0.0001
  521   10.400   2332.53    29.3341     0.1538     0.1022     0.1040    29.3747     0.5229   166.4000    29.2083    -0.0003
  522   10.420   2333.52    28.8916     0.1481     0.0932     0.1042    28.9307     0.5111   166.7200    28.7640    -0.0004
  523   10.440   2334.48    28.4173     0.1404     0.1012     0.1044    28.4585     0.4926   167.0400    28.2914    -0.0002
  524   10.460   2335.43    27.9686     0.1338     0.0955     0.1046    28.0107     0.4775   167.3600    27.8433    -0.0002
  525   10.480   2336.43    27.7528                0.0974     0.1048    27.7931              167.6800    27.6254    -0.0003
  526   10.500   2337.43    28.0556                0.1002     0.1050    28.0956              168.0000    27.9276    -0.0004
  527   10.520   2338.43    28.5348                0.0990     0.1052    28.5780              168.3200    28.4097    -0.0001
  528   10.540   2339.43    29.1242                0.0688     0.1054    29.1570              168.6400    28.9883    -0.0009
  529   10.560   2340.43    29.7946                0.0139     0.1056    29.8072              168.9600    29.6382    -0.0025
  530   10.580   2341.42    30.4838                           0.1058    30.4730              169.2800    30.3037    -0.0043
 
 
