

 Program UNIPLOT                         version 05.36.02
 _______________
 (c) Fugro Netherlands Marine, Nootdorp, The Netherlands


 ASCII representation of data plotted on a graph.

 This ASCII file presents data interpolated to values per fixed depth interval.
 The data are corrected for the depth-offset differences between the various 
 transducers in the penetrometer.

 The records at the start of penetration may include no values or anomalous
 values where a depth offset implies incomplete penetration of a particular
 sensor into the ground.

 The records at the end of penetration may include no values for data channels
 where the transducer did not reach this depth.

 The reference level for test values is (1) the ground surface for onshore tests and (2) the seafloor for nearshore and offshore tests.

 UNICAS data file          : CPT-1027(S).001                         
 Output using command file : PlotASCII.cmd

 ASCII file created at : date          :24-May-2022
                         time          :16:07:24
 Project number                        :20024805                                                                                            
 Date of testing                       :23-Apr-2022                                                                                         
 Location                              :Hong Kong Offshore Wind Farm Project                                                                
 Test name                             :CPT-1027(S)
 Penetrometer                          :F7.5CKE2X3S\B\2753
 Serial no                             :1701-2753

 Table description:
 Column ID                             :Parameter name
 ___________________________________________________________________________________
 Rec                                   :Record ID, Record ID [-]
 Depth                                 :Depth, Depth [m]
 Time                                  :Time, Time [s]
 Cone                                  :Cone Resistance, Cone Resistance [MPa]
 Friction                              :Sleeve Friction, Sleeve Friction [MPa]
 Pore 2                                :Porewater Pressure, Porewater Pressure at Shoulder [MPa]
 HydroPress                            :Hydrostatic Pressure, Hydrostatic Pressure [MPa]
 qt                                    :Total Cone Resistance, Total Cone Resistance [MPa]
 Fric_ratio                            :Friction Ratio, Friction Ratio [%]
 SigmaVert                             :Vertical stress, Vertical stress [kPa] as specified in ground model
 Qnet                                  :Net Cone Resistance, Net Cone Resistance [MPa], unit weight as specified in ground model
 Bq                                    :Porewater Pressure Ratio, Porewater Pressure Ratio [-], unit weight as specified in ground model


 Data table:
  Rec    Depth      Time       Cone   Friction     Pore 2 HydroPress         qt Fric_ratio  SigmaVert       Qnet         Bq
   No        m         s        MPa        MPa        MPa        MPa        MPa          %        kPa        MPa          -
    1    0.000   1886.50     0.0000                           0.0000     0.0000                0.0000     0.0000           
    2    0.020   1887.41     0.0012                0.0003     0.0002     0.0013                0.3200     0.0009           
    3    0.040   1888.33     0.0041                0.0004     0.0004     0.0044                0.6400     0.0037     0.0486
    4    0.060   1889.28     0.0064     0.0005    -0.0002     0.0006     0.0063     7.8337     0.9600     0.0054    -0.1294
    5    0.080   1890.20     0.0073     0.0006    -0.0009     0.0008     0.0071     8.6645     1.2800     0.0058    -0.2106
    6    0.100   1891.11     0.0090     0.0007    -0.0020     0.0010     0.0083     7.9927     1.6000     0.0067    -0.3998
    7    0.120   1892.07     0.0100     0.0008    -0.0015     0.0012     0.0091     7.6254     1.9200     0.0072    -0.4687
    8    0.140   1892.98     0.0102     0.0009    -0.0010     0.0014     0.0095     8.4079     2.2400     0.0072    -0.4363
    9    0.160   1893.89     0.0104     0.0009     0.0007     0.0016     0.0107     8.4891     2.5600     0.0082    -0.1059
   10    0.180   1894.80     0.0113     0.0009     0.0006     0.0018     0.0115     8.4496     2.8800     0.0086    -0.1684
   11    0.200   1895.76     0.0124     0.0010     0.0010     0.0020     0.0127     8.6271     3.2000     0.0095    -0.1270
   12    0.220   1896.67     0.0125     0.0011     0.0014     0.0022     0.0131     9.0752     3.5200     0.0096    -0.0895
   13    0.240   1897.59     0.0126     0.0012     0.0014     0.0024     0.0133     9.2331     3.8400     0.0094    -0.0910
   14    0.260   1898.54     0.0130     0.0012     0.0008     0.0026     0.0134     9.2440     4.1600     0.0093    -0.1549
   15    0.280   1899.46     0.0130     0.0013    -0.0005     0.0028     0.0127    10.0672     4.4800     0.0082    -0.4080
   16    0.300   1900.37     0.0122     0.0015    -0.0007     0.0030     0.0118    11.1762     4.8000     0.0070    -0.5500
   17    0.320   1901.33     0.0102     0.0015     0.0013     0.0032     0.0104    13.2704     5.1200     0.0052    -0.5480
   18    0.340   1902.24     0.0210     0.0015     0.0009     0.0034     0.0218    11.1181     5.4400     0.0163    -0.0962
   19    0.360   1903.17     0.0191     0.0014     0.0017     0.0036     0.0197     5.9252     5.7600     0.0140    -0.1714
   20    0.380   1904.11     0.0088     0.0013     0.0024     0.0038     0.0090    11.4805     6.0800     0.0029    -1.0966
   21    0.400   1905.02     0.0070     0.0012     0.0040     0.0040     0.0087    12.5131     6.4000     0.0023     0.0266
   22    0.420   1905.98     0.0068     0.0010     0.0052     0.0042     0.0088    13.5458     6.7200     0.0021     0.3062
   23    0.440   1906.89     0.0066     0.0010     0.0045     0.0044     0.0088    15.2836     7.0400     0.0017     0.3954
   24    0.460   1907.83     0.0064     0.0010     0.0032     0.0046     0.0078    14.9933     7.3600     0.0004    -6.3962
   25    0.480   1908.76     0.0075     0.0011     0.0058     0.0048     0.0095    14.5074     7.6800     0.0018    -0.2780
   26    0.500   1921.96     0.0059     0.0011     0.0057     0.0050     0.0083    15.2471     8.0000     0.0003     0.2947
   27    0.520   1939.52     0.0038     0.0011     0.0056     0.0052     0.0062    14.4819     8.3200    -0.0021     0.0816
   28    0.540   1951.32     0.0022     0.0011     0.0031     0.0054     0.0045    33.6319     8.6400    -0.0042     0.0302
   29    0.560   1952.25     0.0018     0.0011     0.0013     0.0056     0.0014    54.0647     8.9600    -0.0076     0.8467
   30    0.580   1953.19     0.0006     0.0012     0.0061     0.0058     0.0027   200.6349     9.2800    -0.0066     0.1366
   31    0.600   1954.10     0.0004     0.0011     0.0060     0.0060     0.0026   265.5289     9.6000    -0.0070     0.1108
   32    0.620   1955.01     0.0007     0.0010     0.0069     0.0062     0.0031   149.3648     9.9200    -0.0068     0.0799
   33    0.640   1955.97     0.0017     0.0011     0.0080     0.0064     0.0053    63.5630    10.2400    -0.0050    -0.4176
   34    0.660   1956.88     0.0025     0.0010     0.0067     0.0066     0.0052    42.8338    10.5600    -0.0054     0.0255
   35    0.680   1957.79     0.0027     0.0010     0.0089     0.0068     0.0062    39.6540    10.8800    -0.0047    -0.3464
   36    0.700   1958.71     0.0015     0.0010     0.0082     0.0070     0.0049    85.2781    11.2000    -0.0063    -0.1939
   37    0.720   1959.58     0.0019     0.0009     0.0091     0.0072     0.0055    50.3412    11.5200    -0.0060    -0.2299
   38    0.740   1960.54     0.0030     0.0009     0.0106     0.0074     0.0074    31.4440    11.8400    -0.0044    -0.6811
   39    0.760   1961.49     0.0033     0.0010     0.0109     0.0076     0.0078    29.8321    12.1600    -0.0043    -0.7465
   40    0.780   1962.40     0.0041     0.0010     0.0112     0.0078     0.0086    27.5986    12.4800    -0.0039    -0.7578
   41    0.800   1963.31     0.0052     0.0011     0.0116     0.0080     0.0100    25.2080    12.8000    -0.0028    -1.2902
   42    0.820   1964.27     0.0087     0.0013     0.0116     0.0082     0.0138    15.8646    13.1200     0.0006    -3.1075
   43    0.840   1965.18     0.0125     0.0015     0.0124     0.0084     0.0175    14.2444    13.4400     0.0040     0.8814
   44    0.860   1966.10     0.0149     0.0017     0.0129     0.0086     0.0198    12.6243    13.7600     0.0060     0.5170
   45    0.880   1967.06     0.0152     0.0018     0.0118     0.0088     0.0200    11.6748    14.0800     0.0059     0.4234
   46    0.900   1967.93     0.0153     0.0016     0.0128     0.0090     0.0207    10.3179    14.4000     0.0063     0.5904
   47    0.920   1968.88     0.0148     0.0015     0.0129     0.0092     0.0201     9.4829    14.7200     0.0054     0.6445
   48    0.940   1987.10     0.0166     0.0014     0.0141     0.0094     0.0223     9.3169    15.0400     0.0073     0.6143
   49    0.960   2007.94     0.0188     0.0012     0.0153     0.0096     0.0251     8.1735    15.3600     0.0097     0.5620
   50    0.980   2023.25     0.0206     0.0012     0.0159     0.0098     0.0272     6.6388    15.6800     0.0116     0.5279
   51    1.000   2024.21     0.0205     0.0012     0.0137     0.0100     0.0266     5.9477    16.0000     0.0106     0.4253
   52    1.020   2025.12     0.0211     0.0012     0.0111     0.0102     0.0262     5.6014    16.3200     0.0099     0.1845
   53    1.040   2026.04     0.0218     0.0012     0.0107     0.0104     0.0264     5.4190    16.6400     0.0097     0.0428
   54    1.060   2026.99     0.0225     0.0012     0.0102     0.0106     0.0267     5.4853    16.9600     0.0097    -0.0530
   55    1.080   2027.91     0.0227     0.0014     0.0133     0.0108     0.0277     6.0846    17.2800     0.0104     0.1134
   56    1.100   2028.83     0.0227     0.0014     0.0156     0.0110     0.0290     6.3314    17.6000     0.0114     0.3642
   57    1.120   2029.73     0.0228     0.0015     0.0137     0.0112     0.0289     6.6326    17.9200     0.0110     0.3068
   58    1.140   2030.69     0.0221     0.0015     0.0140     0.0114     0.0278     6.7590    18.2400     0.0096     0.2228
   59    1.160   2031.60     0.0214     0.0016     0.0137     0.0116     0.0272     7.3757    18.5600     0.0086     0.2630
   60    1.180   2032.52     0.0209     0.0016     0.0152     0.0118     0.0272     7.7875    18.8800     0.0083     0.3606
   61    1.200   2033.43     0.0208     0.0016     0.0162     0.0120     0.0271     7.7208    19.2000     0.0079     0.3861
   62    1.220   2034.39     0.0208     0.0015     0.0194     0.0122     0.0286     7.2246    19.5200     0.0091     0.7012
   63    1.240   2035.30     0.0247     0.0014     0.0212     0.0124     0.0334     5.9172    19.8400     0.0135     0.6139
   64    1.260   2036.19     0.0299     0.0016     0.0229     0.0126     0.0393     5.7312    20.1600     0.0191     0.5117
   65    1.280   2037.12     0.0360     0.0018     0.0223     0.0128     0.0456     5.3107    20.4800     0.0251     0.4021
   66    1.300   2038.04     0.0410     0.0018     0.0192     0.0130     0.0493     4.7688    20.8000     0.0285     0.2396
   67    1.320   2038.99     0.0401     0.0020     0.0154     0.0132     0.0471     4.9817    21.1200     0.0260     0.1267
   68    1.340   2039.91     0.0399     0.0021     0.0136     0.0134     0.0455     5.2356    21.4400     0.0240    -0.0107
   69    1.360   2040.82     0.0399     0.0022     0.0179     0.0136     0.0467     5.5045    21.7600     0.0249     0.1033
   70    1.380   2041.78     0.0389     0.0022     0.0208     0.0138     0.0475     5.7051    22.0800     0.0254     0.2607
   71    1.400   2042.71     0.0386     0.0021     0.0214     0.0140     0.0474     5.4841    22.4000     0.0250     0.2859
   72    1.420   2043.61     0.0387     0.0020     0.0172     0.0142     0.0469     5.1364    22.7200     0.0242     0.2203
   73    1.440   2044.56     0.0390     0.0021     0.0193     0.0144     0.0466     5.3773    23.0400     0.0235     0.1543
   74    1.460   2045.47     0.0372     0.0021     0.0217     0.0146     0.0467     5.4454    23.3600     0.0233     0.3450
   75    1.480   2046.43     0.0368     0.0020     0.0211     0.0148     0.0456     5.5445    23.6800     0.0220     0.2845
   76    1.500   2047.34     0.0357     0.0020     0.0234     0.0150     0.0450     5.6448    24.0000     0.0210     0.3413
   77    1.520   2048.30     0.0361     0.0020     0.0256     0.0152     0.0466     5.6602    24.3200     0.0223     0.4461
   78    1.540   2049.21     0.0358     0.0019     0.0283     0.0154     0.0472     5.3368    24.6400     0.0226     0.5214
   79    1.560   2050.13     0.0353     0.0019     0.0315     0.0156     0.0482     5.3103    24.9600     0.0232     0.6425
   80    1.580   2050.99     0.0350     0.0019     0.0339     0.0158     0.0489     5.3575    25.2800     0.0236     0.7284
   81    1.600   2052.00     0.0345     0.0018     0.0366     0.0160     0.0496     5.3387    25.6000     0.0240     0.8299
   82    1.620   2052.90     0.0369     0.0019     0.0380     0.0162     0.0528     5.2661    25.9200     0.0269     0.8095
   83    1.640   2053.82     0.0420     0.0019     0.0375     0.0164     0.0579     4.6846    26.2400     0.0317     0.6769
   84    1.660   2054.78     0.0453     0.0020     0.0386     0.0166     0.0612     4.6068    26.5600     0.0346     0.6105
   85    1.680   2055.66     0.0471     0.0021     0.0376     0.0168     0.0635     4.5289    26.8800     0.0366     0.6091
   86    1.700   2056.60     0.0497     0.0021     0.0384     0.0170     0.0655     4.3800    27.2000     0.0383     0.5341
   87    1.720   2057.52     0.0505     0.0023     0.0401     0.0172     0.0672     4.4955    27.5200     0.0397     0.5684
   88    1.740   2058.43     0.0512     0.0024     0.0392     0.0174     0.0679     4.6050    27.8400     0.0401     0.5595
   89    1.760   2062.33     0.0477     0.0023     0.0370     0.0176     0.0636     4.5475    28.1600     0.0354     0.5719
   90    1.780   2066.48     0.0440     0.0024     0.0348     0.0178     0.0590     4.7334    28.4800     0.0305     0.5864
   91    1.800   2070.53     0.0404     0.0023     0.0335     0.0180     0.0544     4.5647    28.8000     0.0256     0.6017
   92    1.820   2071.49     0.0393     0.0022     0.0373     0.0182     0.0542     5.6099    29.1200     0.0250     0.6855
   93    1.840   2072.40     0.0464     0.0024     0.0423     0.0184     0.0636     5.2886    29.4400     0.0341     0.6603
   94    1.860   2073.34     0.0483     0.0025     0.0449     0.0186     0.0670     5.3304    29.7600     0.0373     0.6972
   95    1.880   2074.27     0.0494     0.0024     0.0434     0.0188     0.0678     4.9162    30.0800     0.0378     0.6643
   96    1.900   2075.18     0.0534     0.0024     0.0406     0.0190     0.0709     4.6280    30.4000     0.0405     0.5586
   97    1.920   2076.11     0.0548     0.0022     0.0439     0.0192     0.0727     4.0800    30.7200     0.0419     0.5531
   98    1.940   2077.05     0.0564     0.0024     0.0468     0.0194     0.0758     4.3132    31.0400     0.0448     0.5986
   99    1.960   2077.96     0.0624     0.0028     0.0479     0.0196     0.0823     4.8016    31.3600     0.0510     0.5460
  100    1.980   2078.89     0.0732     0.0028     0.0447     0.0198     0.0926     4.0753    31.6800     0.0609     0.4345
  101    2.000   2079.84     0.0759     0.0029     0.0409     0.0200     0.0935     3.7645    32.0000     0.0615     0.3557
  102    2.020   2080.77     0.0715     0.0028     0.0338     0.0202     0.0870     3.8063    32.3200     0.0546     0.3036
  103    2.040   2081.69     0.0690     0.0029     0.0351     0.0204     0.0834     4.1171    32.6400     0.0508     0.2718
  104    2.060   2082.62     0.0670     0.0032     0.0448     0.0206     0.0846     4.7167    32.9600     0.0516     0.4108
  105    2.080   2083.54     0.0687     0.0033     0.0518     0.0208     0.0895     4.8501    33.2800     0.0563     0.5113
  106    2.100   2084.49     0.0690     0.0031     0.0550     0.0210     0.0920     4.4782    33.6000     0.0584     0.5798
  107    2.120   2085.40     0.0755     0.0030     0.0524     0.0212     0.0977     4.2138    33.9200     0.0638     0.4985
  108    2.140   2086.35     0.0806     0.0030     0.0549     0.0214     0.1034     3.8339    34.2400     0.0692     0.4780
  109    2.160   2087.23     0.0838     0.0031     0.0518     0.0216     0.1060     3.8250    34.5600     0.0714     0.4392
  110    2.180   2088.19     0.0860     0.0031     0.0491     0.0218     0.1070     3.6624    34.8800     0.0721     0.3919
  111    2.200   2089.11     0.0852     0.0032     0.0497     0.0220     0.1055     3.7088    35.2000     0.0703     0.3760
  112    2.220   2090.06     0.0858     0.0030     0.0549     0.0222     0.1082     3.5506    35.5200     0.0727     0.4298
  113    2.240   2090.97     0.0854     0.0030     0.0571     0.0224     0.1095     3.4835    35.8400     0.0737     0.4739
  114    2.260   2091.88     0.0842     0.0031     0.0542     0.0226     0.1078     3.6046    36.1600     0.0716     0.4688
  115    2.280   2092.79     0.0796     0.0032     0.0505     0.0228     0.1010     3.8925    36.4800     0.0645     0.4370
  116    2.300   2093.71     0.0768     0.0031     0.0469     0.0230     0.0973     4.0362    36.8000     0.0605     0.4252
  117    2.320   2094.63     0.0728     0.0032     0.0442     0.0232     0.0916     4.2095    37.1200     0.0545     0.3978
  118    2.340   2095.61     0.0668     0.0033     0.0429     0.0234     0.0851     4.8667    37.4400     0.0477     0.4252
  119    2.360   2096.49     0.0637     0.0033     0.0466     0.0236     0.0824     4.9483    37.7600     0.0446     0.4673
  120    2.380   2097.45     0.0615     0.0032     0.0517     0.0238     0.0826     4.9289    38.0800     0.0445     0.5963
  121    2.400   2098.41     0.0667     0.0032     0.0508     0.0240     0.0883     4.8115    38.4000     0.0499     0.5515
  122    2.420   2099.27     0.0700     0.0032     0.0510     0.0242     0.0912     4.6347    38.7200     0.0525     0.4983
  123    2.440   2100.23     0.0720     0.0033     0.0575     0.0244     0.0951     4.5530    39.0400     0.0561     0.5474
  124    2.460   2101.16     0.0698     0.0033     0.0612     0.0246     0.0950     4.7435    39.3600     0.0556     0.6360
  125    2.480   2104.22     0.0696     0.0035     0.0564     0.0248     0.0933     5.1446    39.6800     0.0536     0.5957
  126    2.500   2124.07     0.0813     0.0036     0.0560     0.0250     0.1048     5.2799    40.0000     0.0648     0.5007
  127    2.520   2143.93     0.0930     0.0038     0.0562     0.0252     0.1164     5.5885    40.3200     0.0761     0.4058
  128    2.540   2147.32     0.0974     0.0036     0.0582     0.0254     0.1216     3.7698    40.6400     0.0810     0.3999
  129    2.560   2148.25     0.1032     0.0036     0.0609     0.0256     0.1281     3.4925    40.9600     0.0871     0.3900
  130    2.580   2149.21     0.0988     0.0035     0.0670     0.0258     0.1262     3.5729    41.2800     0.0849     0.4620
  131    2.600   2150.12     0.1027     0.0035     0.0724     0.0260     0.1326     3.4425    41.6000     0.0910     0.4962
  132    2.620   2151.04     0.1055     0.0035     0.0722     0.0262     0.1360     3.3562    41.9200     0.0941     0.4936
  133    2.640   2151.99     0.1104     0.0034     0.0691     0.0264     0.1394     3.0587    42.2400     0.0971     0.4384
  134    2.660   2152.90     0.1103     0.0036     0.0689     0.0266     0.1392     3.3031    42.5600     0.0966     0.4351
  135    2.680   2153.82     0.1133     0.0038     0.0693     0.0268     0.1426     3.4179    42.8800     0.0997     0.4301
  136    2.700   2154.78     0.1162     0.0041     0.0674     0.0270     0.1446     3.5931    43.2000     0.1014     0.4005
  137    2.720   2155.69     0.1263     0.0044     0.0662     0.0272     0.1548     3.4590    43.5200     0.1113     0.3657
  138    2.740   2156.56     0.1292     0.0042     0.0574     0.0274     0.1554     3.2595    43.8400     0.1116     0.3123
  139    2.760   2157.47     0.1197     0.0042     0.0566     0.0276     0.1433     3.2909    44.1600     0.0991     0.2894
  140    2.780   2158.47     0.1103     0.0042     0.0562     0.0278     0.1339     3.7733    44.4800     0.0894     0.3177
  141    2.800   2159.32     0.1074     0.0040     0.0628     0.0280     0.1324     3.6610    44.8000     0.0876     0.3587
  142    2.820   2160.25     0.1023     0.0037     0.0676     0.0282     0.1303     3.6124    45.1200     0.0852     0.4510
  143    2.840   2161.21     0.1055     0.0035     0.0758     0.0284     0.1364     3.3175    45.4400     0.0910     0.4972
  144    2.860   2162.17     0.1070     0.0034     0.0733     0.0286     0.1386     3.2335    45.7600     0.0928     0.5028
  145    2.880   2163.08     0.1104     0.0035     0.0755     0.0288     0.1421     3.2333    46.0800     0.0960     0.4851
  146    2.900   2163.99     0.1127     0.0037     0.0750     0.0290     0.1442     3.3637    46.4000     0.0978     0.4705
  147    2.920   2164.95     0.1122     0.0036     0.0712     0.0292     0.1425     3.2009    46.7200     0.0957     0.4484
  148    2.940   2165.91     0.1037     0.0038     0.0640     0.0294     0.1316     3.6432    47.0400     0.0846     0.4390
  149    2.960   2166.82     0.0978     0.0038     0.0617     0.0296     0.1238     3.8067    47.3600     0.0764     0.4230
  150    2.980   2167.74     0.0981     0.0039     0.0627     0.0298     0.1241     4.0331    47.6800     0.0764     0.4210
  151    3.000   2168.66     0.1046     0.0038     0.0678     0.0300     0.1325     3.7498    48.0000     0.0845     0.4299
  152    3.020   2169.57     0.1166     0.0037     0.0725     0.0302     0.1461     3.3464    48.3200     0.0977     0.4097
  153    3.040   2170.52     0.1234     0.0034     0.0770     0.0304     0.1554     2.8338    48.6400     0.1068     0.4299
  154    3.060   2171.48     0.1256     0.0034     0.0743     0.0306     0.1572     2.6813    48.9600     0.1082     0.4117
  155    3.080   2172.39     0.1232     0.0035     0.0741     0.0308     0.1543     2.8068    49.2800     0.1050     0.4118
  156    3.100   2173.30     0.1148     0.0037     0.0726     0.0310     0.1456     3.1050    49.6000     0.0960     0.4418
  157    3.120   2174.22     0.1048     0.0039     0.0666     0.0312     0.1338     3.5944    49.9200     0.0839     0.4525
  158    3.140   2175.17     0.1001     0.0040     0.0619     0.0314     0.1266     3.9704    50.2400     0.0763     0.4147
  159    3.160   2176.09     0.0960     0.0040     0.0615     0.0316     0.1220     4.2051    50.5600     0.0715     0.4248
  160    3.180   2177.00     0.0901     0.0038     0.0648     0.0318     0.1167     4.1474    50.8800     0.0659     0.4810
  161    3.200   2177.96     0.0903     0.0038     0.0657     0.0320     0.1176     4.4005    51.2000     0.0664     0.4965
  162    3.220   2178.87     0.1003     0.0038     0.0717     0.0322     0.1293     4.0806    51.5200     0.0778     0.4762
  163    3.240   2179.78     0.1077     0.0040     0.0788     0.0324     0.1398     3.8614    51.8400     0.0880     0.4999
  164    3.260   2180.70     0.1154     0.0040     0.0836     0.0326     0.1499     3.5827    52.1600     0.0978     0.5064
  165    3.280   2181.62     0.1203     0.0041     0.0776     0.0328     0.1535     3.5009    52.4800     0.1010     0.4568
  166    3.300   2182.61     0.1246     0.0043     0.0794     0.0330     0.1574     3.4783    52.8000     0.1046     0.4308
  167    3.320   2183.52     0.1260     0.0043     0.0805     0.0332     0.1594     3.4061    53.1200     0.1063     0.4347
  168    3.340   2184.44     0.1252     0.0042     0.0857     0.0334     0.1604     3.3399    53.4400     0.1070     0.4713
  169    3.360   2185.38     0.1266     0.0041     0.0909     0.0336     0.1642     3.2779    53.7600     0.1104     0.5060
  170    3.380   2186.31     0.1325     0.0041     0.0949     0.0338     0.1717     3.2098    54.0800     0.1176     0.5063
  171    3.400   2187.22     0.1392     0.0041     0.0992     0.0340     0.1803     3.0388    54.4000     0.1259     0.5075
  172    3.420   2188.18     0.1472     0.0042     0.0997     0.0342     0.1890     2.9427    54.7200     0.1343     0.4878
  173    3.440   2189.10     0.1493     0.0042     0.0911     0.0344     0.1893     2.8180    55.0400     0.1343     0.4540
  174    3.460   2190.05     0.1510     0.0042     0.0828     0.0346     0.1853     2.7989    55.3600     0.1299     0.3630
  175    3.480   2190.96     0.1500     0.0044     0.0859     0.0348     0.1855     2.9375    55.6800     0.1298     0.3823
  176    3.500   2191.91     0.1473     0.0044     0.0919     0.0350     0.1851     2.9997    56.0000     0.1291     0.4260
  177    3.520   2192.83     0.1429     0.0042     0.0963     0.0352     0.1829     2.9200    56.3200     0.1265     0.4732
  178    3.540   2193.75     0.1423     0.0041     0.0951     0.0354     0.1827     2.8597    56.6400     0.1261     0.4818
  179    3.560   2194.66     0.1423     0.0039     0.0942     0.0356     0.1819     2.7537    56.9600     0.1249     0.4701
  180    3.580   2195.62     0.1460     0.0037     0.0917     0.0358     0.1849     2.5540    57.2800     0.1276     0.4447
  181    3.600   2196.53     0.1488     0.0039     0.0956     0.0360     0.1881     2.5935    57.6000     0.1305     0.4405
  182    3.620   2197.44     0.1510     0.0040     0.0991     0.0362     0.1924     2.7063    57.9200     0.1345     0.4631
  183    3.640   2198.35     0.1505     0.0042     0.0954     0.0364     0.1920     2.7941    58.2400     0.1337     0.4665
  184    3.660   2199.29     0.1450     0.0041     0.0836     0.0366     0.1814     2.7786    58.5600     0.1229     0.4087
  185    3.680   2200.23     0.1367     0.0041     0.0742     0.0368     0.1689     2.9041    58.8800     0.1100     0.3619
  186    3.700   2201.14     0.1351     0.0044     0.0748     0.0370     0.1664     3.2278    59.2000     0.1072     0.3498
  187    3.720   2202.06     0.1350     0.0044     0.0780     0.0372     0.1671     3.2543    59.5200     0.1076     0.3651
  188    3.740   2203.01     0.1341     0.0044     0.0861     0.0374     0.1691     3.2966    59.8400     0.1092     0.4201
  189    3.760   2203.96     0.1387     0.0034     0.0923     0.0376     0.1769     2.4972    60.1600     0.1167     0.4556
  190    3.780   2204.88     0.1449     0.0059     0.0974     0.0378     0.1851     4.1479    60.4800     0.1247     0.4648
  191    3.800   2205.79     0.1491     0.0058     0.0997     0.0380     0.1908     3.9469    60.8000     0.1300     0.4707
  192    3.820   2206.75     0.1534     0.0059     0.1005     0.0382     0.1956     3.8775    61.1200     0.1344     0.4630
  193    3.840   2207.66     0.1554     0.0059     0.1008     0.0384     0.1976     3.8330    61.4400     0.1362     0.4557
  194    3.860   2217.10     0.1339     0.0058     0.0897     0.0386     0.1726     4.1369    61.7600     0.1108     0.4855
  195    3.880   2220.59     0.1686     0.0056     0.0825     0.0388     0.2047     3.8782    62.0800     0.1426     0.3307
  196    3.900   2221.58     0.1763     0.0054     0.0870     0.0390     0.2114     3.0689    62.4000     0.1490     0.2988
  197    3.920   2222.54     0.1715     0.0054     0.0956     0.0392     0.2106     3.0890    62.7200     0.1479     0.3646
  198    3.940   2223.45     0.1715     0.0053     0.1008     0.0394     0.2133     3.0999    63.0400     0.1503     0.3998
  199    3.960   2224.41     0.1731     0.0052     0.1006     0.0396     0.2152     2.9902    63.3600     0.1519     0.4004
  200    3.980   2225.32     0.1731     0.0052     0.0983     0.0398     0.2151     2.9830    63.6800     0.1514     0.3969
  201    4.000   2226.24     0.1764     0.0051     0.0931     0.0400     0.2161     2.8839    64.0000     0.1521     0.3585
  202    4.020   2227.16     0.1734     0.0050     0.0937     0.0402     0.2129     2.8794    64.3200     0.1486     0.3632
  203    4.040   2228.11     0.1724     0.0049     0.0954     0.0404     0.2118     2.8175    64.6400     0.1472     0.3631
  204    4.060   2229.02     0.1713     0.0048     0.0929     0.0406     0.2101     2.8225    64.9600     0.1451     0.3561
  205    4.080   2229.93     0.1684     0.0047     0.0960     0.0408     0.2084     2.7847    65.2800     0.1431     0.3807
  206    4.100   2230.85     0.1646     0.0046     0.0956     0.0410     0.2050     2.7283    65.6000     0.1394     0.3956
  207    4.120   2231.78     0.1641     0.0046     0.0960     0.0412     0.2042     2.8027    65.9200     0.1383     0.3918
  208    4.140   2232.72     0.1613     0.0046     0.0976     0.0414     0.2021     2.8427    66.2400     0.1359     0.4106
  209    4.160   2233.64     0.1563     0.0044     0.0954     0.0416     0.1968     2.7944    66.5600     0.1303     0.4221
  210    4.180   2234.54     0.1537     0.0044     0.0898     0.0418     0.1918     2.8292    66.8800     0.1249     0.3922
  211    4.200   2235.50     0.1500     0.0044     0.0916     0.0420     0.1881     2.9056    67.2000     0.1209     0.4029
  212    4.220   2236.41     0.1481     0.0043     0.0942     0.0422     0.1878     2.8641    67.5200     0.1203     0.4353
  213    4.240   2237.32     0.1464     0.0044     0.0954     0.0424     0.1859     3.0088    67.8400     0.1181     0.4369
  214    4.260   2238.28     0.1480     0.0042     0.0950     0.0426     0.1887     2.8662    68.1600     0.1206     0.4500
  215    4.280   2239.20     0.1495     0.0042     0.0844     0.0428     0.1863     2.8130    68.4800     0.1178     0.3801
  216    4.300   2240.15     0.1451     0.0040     0.0872     0.0430     0.1812     2.7844    68.8000     0.1124     0.3828
  217    4.320   2241.07     0.1430     0.0042     0.0933     0.0432     0.1814     2.9207    69.1200     0.1122     0.4295
  218    4.340   2241.98     0.1462     0.0040     0.0983     0.0434     0.1868     2.7547    69.4400     0.1174     0.4551
  219    4.360   2242.89     0.1469     0.0043     0.1025     0.0436     0.1895     2.9242    69.7600     0.1197     0.4813
  220    4.380   2243.83     0.1483     0.0046     0.1066     0.0438     0.1924     3.0988    70.0800     0.1224     0.5013
  221    4.400   2244.76     0.1527     0.0047     0.1095     0.0440     0.1984     3.1547    70.4000     0.1280     0.5059
  222    4.420   2245.69     0.1538     0.0046     0.1087     0.0442     0.1998     2.9783    70.7200     0.1291     0.5061
  223    4.440   2246.63     0.1528     0.0045     0.1043     0.0444     0.1967     2.9541    71.0400     0.1256     0.4787
  224    4.460   2255.89     0.1510     0.0045     0.0998     0.0446     0.1936     2.9511    71.3600     0.1222     0.4639
  225    4.480   2270.76     0.1457     0.0047     0.0949     0.0448     0.1862     3.0479    71.6800     0.1146     0.4506
  226    4.500   2285.63     0.1403     0.0045     0.0936     0.0450     0.1789     2.9218    72.0000     0.1069     0.4374
  227    4.520   2287.86     0.1376     0.0044     0.0970     0.0452     0.1781     3.1510    72.3200     0.1057     0.4831
  228    4.540   2288.79     0.1392     0.0042     0.1014     0.0454     0.1811     3.0191    72.6400     0.1084     0.5010
  229    4.560   2289.70     0.1427     0.0040     0.1068     0.0456     0.1867     2.8234    72.9600     0.1137     0.5194
  230    4.580   2290.61     0.1473     0.0040     0.1127     0.0458     0.1938     2.7124    73.2800     0.1205     0.5391
  231    4.600   2291.57     0.1498     0.0038     0.1167     0.0460     0.1981     2.5258    73.6000     0.1245     0.5539
  232    4.620   2292.48     0.1523     0.0038     0.1165     0.0462     0.2020     2.5126    73.9200     0.1280     0.5620
  233    4.640   2293.40     0.1555     0.0039     0.1122     0.0464     0.2030     2.5327    74.2400     0.1287     0.5179
  234    4.660   2294.31     0.1563     0.0040     0.1105     0.0466     0.2029     2.5985    74.5600     0.1283     0.5012
  235    4.680   2295.22     0.1543     0.0041     0.1104     0.0468     0.2009     2.6323    74.8800     0.1260     0.5089
  236    4.700   2296.13     0.1489     0.0040     0.1009     0.0470     0.1928     2.6330    75.2000     0.1176     0.4882
  237    4.720   2297.05     0.1453     0.0040     0.1026     0.0472     0.1881     2.7136    75.5200     0.1125     0.4854
  238    4.740   2298.00     0.1425     0.0040     0.1070     0.0474     0.1868     2.7903    75.8400     0.1110     0.5234
  239    4.760   2298.92     0.1384     0.0045     0.1119     0.0476     0.1848     3.1818    76.1600     0.1086     0.5790
  240    4.780   2299.84     0.1374     0.0050     0.1137     0.0478     0.1849     3.5844    76.4800     0.1084     0.6027
  241    4.800   2300.79     0.1419     0.0051     0.1170     0.0480     0.1905     3.6246    76.8000     0.1137     0.5969
  242    4.820   2301.72     0.1467     0.0049     0.1135     0.0482     0.1955     3.3830    77.1200     0.1184     0.5734
  243    4.840   2302.65     0.1507     0.0049     0.1116     0.0484     0.1969     3.2829    77.4400     0.1194     0.5151
  244    4.860   2307.18     0.1529     0.0049     0.1020     0.0486     0.1973     3.1942    77.7600     0.1195     0.4754
  245    4.880   2314.44     0.1540     0.0049     0.0910     0.0488     0.1938     3.2402    78.0800     0.1157     0.3943
  246    4.900   2320.21     0.1542     0.0048     0.0935     0.0490     0.1917     3.0927    78.4000     0.1133     0.3552
  247    4.920   2321.19     0.1508     0.0045     0.1058     0.0492     0.1935     2.9732    78.7200     0.1148     0.4580
  248    4.940   2322.13     0.1443     0.0045     0.1140     0.0494     0.1911     3.0189    79.0400     0.1121     0.5536
  249    4.960   2323.05     0.1447     0.0044     0.1201     0.0496     0.1943     3.0707    79.3600     0.1149     0.5951
  250    4.980   2324.00     0.1497     0.0044     0.1246     0.0498     0.2013     2.9412    79.6800     0.1216     0.6005
  251    5.000   2324.91     0.1558     0.0043     0.1293     0.0500     0.2096     2.8364    80.0000     0.1296     0.6013
  252    5.020   2325.84     0.1606     0.0043     0.1270     0.0502     0.2152     2.6660    80.3200     0.1349     0.5909
  253    5.040   2326.78     0.1638     0.0044     0.1164     0.0504     0.2134     2.6652    80.6400     0.1328     0.5090
  254    5.060   2327.70     0.1658     0.0046     0.1196     0.0506     0.2157     2.7970    80.9600     0.1348     0.5061
  255    5.080   2328.61     0.1653     0.0049     0.1206     0.0508     0.2165     2.9266    81.2800     0.1352     0.5261
  256    5.100   2329.57     0.1623     0.0048     0.1206     0.0510     0.2137     2.9809    81.6000     0.1321     0.5405
  257    5.120   2330.44     0.1622     0.0047     0.1187     0.0512     0.2121     2.9347    81.9200     0.1301     0.5182
  258    5.140   2331.38     0.1600     0.0048     0.1190     0.0514     0.2093     2.9702    82.2400     0.1271     0.5205
  259    5.160   2332.29     0.1541     0.0048     0.1260     0.0516     0.2062     3.0336    82.5600     0.1236     0.5853
  260    5.180   2333.22     0.1525     0.0045     0.1313     0.0518     0.2070     2.9502    82.8800     0.1241     0.6272
  261    5.200   2334.18     0.1535     0.0044     0.1355     0.0520     0.2100     2.8636    83.2000     0.1268     0.6504
  262    5.220   2335.13     0.1590     0.0045     0.1381     0.0522     0.2167     2.8667    83.5200     0.1332     0.6405
  263    5.240   2336.05     0.1654     0.0045     0.1396     0.0524     0.2234     2.7979    83.8400     0.1395     0.6138
  264    5.260   2337.01     0.1726     0.0046     0.1424     0.0526     0.2322     2.7053    84.1600     0.1481     0.6041
  265    5.280   2337.92     0.1825     0.0048     0.1401     0.0528     0.2422     2.6952    84.4800     0.1577     0.5657
  266    5.300   2338.84     0.1896     0.0048     0.1310     0.0530     0.2455     2.5694    84.8000     0.1607     0.4984
  267    5.320   2339.79     0.1897     0.0048     0.1346     0.0532     0.2457     2.5318    85.1200     0.1606     0.4994
  268    5.340   2340.72     0.1897     0.0048     0.1270     0.0534     0.2448     2.5592    85.4400     0.1594     0.4879
  269    5.360   2341.68     0.1905     0.0049     0.1353     0.0536     0.2462     2.5652    85.7600     0.1604     0.4929
  270    5.380   2342.62     0.1920     0.0051     0.1405     0.0538     0.2503     2.6514    86.0800     0.1642     0.5169
  271    5.400   2343.53     0.1918     0.0050     0.1412     0.0540     0.2516     2.5972    86.4000     0.1652     0.5350
  272    5.420   2344.49     0.1936     0.0049     0.1354     0.0542     0.2511     2.5629    86.7200     0.1644     0.5026
  273    5.440   2345.40     0.1994     0.0050     0.1318     0.0544     0.2550     2.5448    87.0400     0.1679     0.4642
  274    5.460   2346.34     0.1949     0.0049     0.1336     0.0546     0.2507     2.4480    87.3600     0.1634     0.4788
  275    5.480   2347.30     0.1875     0.0048     0.1340     0.0548     0.2440     2.5472    87.6800     0.1563     0.5090
  276    5.500   2348.23     0.1840     0.0048     0.1301     0.0550     0.2393     2.6232    88.0000     0.1513     0.5068
  277    5.520   2349.16     0.1861     0.0048     0.1314     0.0552     0.2402     2.6038    88.3200     0.1519     0.4840
  278    5.540   2350.10     0.1887     0.0049     0.1334     0.0554     0.2456     2.5828    88.6400     0.1569     0.5094
  279    5.560   2351.05     0.1908     0.0048     0.1303     0.0556     0.2454     2.5130    88.9600     0.1564     0.4752
  280    5.580   2351.93     0.1884     0.0048     0.1324     0.0558     0.2432     2.5272    89.2800     0.1539     0.4850
  281    5.600   2352.87     0.1859     0.0047     0.1348     0.0560     0.2423     2.5238    89.6000     0.1527     0.5135
  282    5.620   2353.80     0.1831     0.0046     0.1380     0.0562     0.2406     2.5056    89.9200     0.1506     0.5358
  283    5.640   2354.71     0.1814     0.0048     0.1360     0.0564     0.2391     2.6500    90.2400     0.1489     0.5441
  284    5.660   2355.67     0.1806     0.0047     0.1333     0.0566     0.2369     2.6089    90.5600     0.1464     0.5299
  285    5.680   2356.58     0.1779     0.0047     0.1376     0.0568     0.2351     2.5964    90.8800     0.1442     0.5497
  286    5.700   2357.49     0.1767     0.0046     0.1426     0.0570     0.2356     2.5990    91.2000     0.1444     0.5761
  287    5.720   2358.45     0.1795     0.0046     0.1426     0.0572     0.2399     2.5786    91.5200     0.1484     0.5842
  288    5.740   2359.36     0.1812     0.0048     0.1435     0.0574     0.2408     2.6414    91.8400     0.1490     0.5674
  289    5.760   2360.30     0.1852     0.0054     0.1494     0.0576     0.2475     2.9360    92.1600     0.1554     0.5848
  290    5.780   2361.21     0.1874     0.0060     0.1495     0.0578     0.2497     3.2306    92.4800     0.1572     0.5748
  291    5.800   2362.15     0.1911     0.0059     0.1509     0.0580     0.2547     3.0962    92.8000     0.1619     0.5767
  292    5.820   2363.10     0.1926     0.0057     0.1467     0.0582     0.2543     2.9325    93.1200     0.1612     0.5500
  293    5.840   2363.97     0.1937     0.0056     0.1476     0.0584     0.2565     2.9142    93.4400     0.1630     0.5578
  294    5.860   2371.34     0.1951     0.0056     0.1414     0.0586     0.2554     2.8970    93.7600     0.1617     0.5249
  295    5.880   2378.92     0.1965     0.0056     0.1352     0.0588     0.2542     2.8653    94.0800     0.1601     0.4903
  296    5.900   2382.98     0.1942     0.0055     0.1353     0.0590     0.2511     2.7831    94.4000     0.1567     0.4884
  297    5.920   2383.94     0.1862     0.0054     0.1353     0.0592     0.2431     2.8875    94.7200     0.1484     0.5152
  298    5.940   2384.85     0.1848     0.0053     0.1363     0.0594     0.2414     2.8407    95.0400     0.1464     0.5150
  299    5.960   2385.81     0.1851     0.0052     0.1430     0.0596     0.2443     2.7846    95.3600     0.1489     0.5461
  300    5.980   2386.70     0.1883     0.0051     0.1475     0.0598     0.2499     2.7301    95.6800     0.1542     0.5624
  301    6.000   2387.64     0.1948     0.0052     0.1551     0.0600     0.2590     2.6648    96.0000     0.1630     0.5686
  302    6.020   2388.55     0.2018     0.0050     0.1570     0.0602     0.2671     2.5057    96.3200     0.1708     0.5576
  303    6.040   2389.46     0.2072     0.0054     0.1574     0.0604     0.2736     2.6233    96.6400     0.1769     0.5515
  304    6.060   2390.41     0.2072     0.0055     0.1433     0.0606     0.2700     2.6478    96.9600     0.1730     0.5134
  305    6.080   2391.33     0.2082     0.0054     0.1385     0.0608     0.2663     2.6133    97.2800     0.1690     0.4587
  306    6.100   2392.24     0.2011     0.0054     0.1399     0.0610     0.2596     2.6121    97.6000     0.1620     0.4833
  307    6.120   2393.16     0.1992     0.0053     0.1433     0.0612     0.2585     2.6384    97.9200     0.1606     0.4987
  308    6.140   2394.12     0.1925     0.0051     0.1489     0.0614     0.2544     2.6598    98.2400     0.1562     0.5512
  309    6.160   2395.03     0.1952     0.0053     0.1489     0.0616     0.2570     2.7152    98.5600     0.1585     0.5405
  310    6.180   2395.98     0.1956     0.0051     0.1557     0.0618     0.2603     2.6318    98.8800     0.1614     0.5713
  311    6.200   2396.90     0.1939     0.0050     0.1521     0.0620     0.2585     2.5937    99.2000     0.1593     0.5766
  312    6.220   2397.81     0.1923     0.0050     0.1449     0.0622     0.2542     2.6141    99.5200     0.1547     0.5514
  313    6.240   2398.75     0.1885     0.0053     0.1411     0.0624     0.2482     2.7666    99.8400     0.1484     0.5373
  314    6.260   2399.55     0.1853     0.0056     0.1434     0.0626     0.2449     3.0357   100.1600     0.1448     0.5490
  315    6.280   2400.42     0.1827     0.0058     0.1498     0.0628     0.2446     3.1996   100.4800     0.1441     0.5864
  316    6.300   2401.36     0.1788     0.0056     0.1562     0.0630     0.2438     3.1109   100.8000     0.1430     0.6416
  317    6.320   2402.28     0.1773     0.0055     0.1593     0.0632     0.2436     3.1052   101.1200     0.1425     0.6650
  318    6.340   2404.97     0.1811     0.0053     0.1586     0.0634     0.2484     2.9866   101.4400     0.1470     0.6593
  319    6.360   2427.79     0.1863     0.0053     0.1537     0.0636     0.2516     2.9526   101.7600     0.1498     0.6138
  320    6.380   2450.60     0.1915     0.0051     0.1505     0.0638     0.2547     2.8266   102.0800     0.1527     0.5683
  321    6.400   2454.33     0.1966     0.0052     0.1555     0.0640     0.2608     2.6827   102.4000     0.1584     0.5618
  322    6.420   2455.26     0.1982     0.0053     0.1636     0.0642     0.2659     2.6645   102.7200     0.1632     0.5944
  323    6.440   2456.18     0.2010     0.0053     0.1663     0.0644     0.2708     2.6498   103.0400     0.1677     0.6071
  324    6.460   2457.13     0.2062     0.0053     0.1636     0.0646     0.2760     2.5652   103.3600     0.1726     0.5882
  325    6.480   2458.08     0.2114     0.0054     0.1601     0.0648     0.2792     2.5843   103.6800     0.1755     0.5495
  326    6.500   2459.00     0.2145     0.0054     0.1604     0.0650     0.2816     2.4989   104.0000     0.1776     0.5343
  327    6.520   2459.81     0.2145     0.0056     0.1599     0.0652     0.2819     2.6330   104.3200     0.1775     0.5361
  328    6.540   2460.54     0.2167     0.0058     0.1576     0.0654     0.2832     2.6677   104.6400     0.1786     0.5210
  329    6.560   2461.38     0.2202     0.0060     0.1557     0.0656     0.2858     2.7395   104.9600     0.1808     0.5007
  330    6.580   2462.24     0.2217     0.0060     0.1547     0.0658     0.2869     2.7340   105.2800     0.1816     0.4924
  331    6.600   2463.15     0.2219     0.0059     0.1521     0.0660     0.2861     2.6439   105.6000     0.1805     0.4807
  332    6.620   2464.06     0.2189     0.0059     0.1511     0.0662     0.2819     2.6919   105.9200     0.1760     0.4765
  333    6.640   2465.02     0.2170     0.0058     0.1562     0.0664     0.2810     2.6813   106.2400     0.1748     0.4927
  334    6.660   2465.93     0.2120     0.0056     0.1651     0.0666     0.2803     2.6227   106.5600     0.1737     0.5527
  335    6.680   2466.89     0.2163     0.0058     0.1715     0.0668     0.2874     2.7367   106.8800     0.1805     0.5683
  336    6.700   2467.85     0.2254     0.0058     0.1712     0.0670     0.2981     2.5971   107.2000     0.1909     0.5557
  337    6.720   2468.76     0.2338     0.0059     0.1669     0.0672     0.3042     2.5741   107.5200     0.1967     0.5100
  338    6.740   2469.69     0.2377     0.0065     0.1617     0.0674     0.3062     2.7538   107.8400     0.1983     0.4825
  339    6.760   2470.63     0.2410     0.0073     0.1544     0.0676     0.3068     3.0718   108.1600     0.1986     0.4476
  340    6.780   2471.55     0.2335     0.0081     0.1518     0.0678     0.2981     3.3750   108.4800     0.1897     0.4541
  341    6.800   2472.46     0.2263     0.0058     0.1493     0.0680     0.2885     2.5251   108.8000     0.1797     0.4449
  342    6.820   2473.41     0.2198     0.0072     0.1573     0.0682     0.2847     3.2403   109.1200     0.1756     0.4919
  343    6.840   2475.81     0.2167     0.0068     0.1583     0.0684     0.2834     3.1519   109.4400     0.1740     0.5201
  344    6.860   2480.83     0.2150     0.0065     0.1567     0.0686     0.2811     2.9881   109.7600     0.1713     0.5174
  345    6.880   2485.84     0.2134     0.0062     0.1553     0.0688     0.2788     2.8411   110.0800     0.1687     0.5147
  346    6.900   2488.58     0.2075     0.0059     0.1752     0.0690     0.2791     2.8319   110.4000     0.1687     0.6031
  347    6.920   2489.92     0.2094     0.0059     0.1758     0.0692     0.2834     3.2883   110.7200     0.1727     0.6244
  348    6.940   2490.88     0.2187     0.0056     0.1746     0.0694     0.2925     2.5822   111.0400     0.1814     0.5853
  349    6.960   2491.80     0.2217     0.0057     0.1691     0.0696     0.2938     2.5640   111.3600     0.1824     0.5588
  350    6.980   2492.72     0.2247     0.0057     0.1660     0.0698     0.2941     2.5558   111.6800     0.1824     0.5232
  351    7.000   2493.63     0.2212     0.0057     0.1688     0.0700     0.2921     2.5486   112.0000     0.1801     0.5483
  352    7.020   2494.59     0.2185     0.0057     0.1747     0.0702     0.2913     2.5895   112.3200     0.1790     0.5756
  353    7.040   2495.50     0.2213     0.0055     0.1766     0.0704     0.2955     2.4954   112.6400     0.1828     0.5803
  354    7.060   2496.41     0.2176     0.0056     0.1787     0.0706     0.2924     2.5730   112.9600     0.1794     0.5981
  355    7.080   2497.33     0.2183     0.0056     0.1835     0.0708     0.2945     2.5555   113.2800     0.1813     0.6112
  356    7.100   2498.28     0.2210     0.0056     0.1815     0.0710     0.2979     2.5370   113.6000     0.1843     0.6085
  357    7.120   2499.20     0.2233     0.0057     0.1758     0.0712     0.2983     2.5371   113.9200     0.1843     0.5819
  358    7.140   2500.11     0.2258     0.0059     0.1742     0.0714     0.2990     2.6075   114.2400     0.1848     0.5564
  359    7.160   2501.06     0.2186     0.0059     0.1760     0.0716     0.2918     2.7128   114.5600     0.1772     0.5788
  360    7.180   2501.93     0.2151     0.0059     0.1774     0.0718     0.2897     2.7317   114.8800     0.1748     0.6045
  361    7.200   2502.88     0.2148     0.0059     0.1775     0.0720     0.2892     2.7632   115.2000     0.1740     0.6038
  362    7.220   2503.83     0.2111     0.0058     0.1821     0.0722     0.2869     2.7574   115.5200     0.1714     0.6313
  363    7.240   2504.76     0.2081     0.0058     0.1845     0.0724     0.2853     2.7588   115.8400     0.1695     0.6570
  364    7.260   2505.67     0.2088     0.0057     0.1899     0.0726     0.2881     2.7489   116.1600     0.1719     0.6758
  365    7.280   2506.63     0.2143     0.0056     0.1915     0.0728     0.2940     2.6541   116.4800     0.1775     0.6587
  366    7.300   2507.50     0.2217     0.0057     0.1933     0.0730     0.3022     2.6136   116.8000     0.1854     0.6399
  367    7.320   2508.41     0.2307     0.0062     0.1955     0.0732     0.3128     2.7174   117.1200     0.1957     0.6259
  368    7.340   2509.37     0.2406     0.0067     0.1948     0.0734     0.3228     2.8213   117.4400     0.2054     0.5963
  369    7.360   2510.33     0.2482     0.0072     0.1903     0.0736     0.3287     2.9252   117.7600     0.2109     0.5592
  370    7.380   2511.29     0.2513     0.0074     0.1854     0.0738     0.3298     2.9788   118.0800     0.2117     0.5342
  371    7.400   2512.18     0.2544     0.0074     0.1844     0.0740     0.3321     2.9115   118.4000     0.2137     0.5195
  372    7.420   2520.49     0.2551     0.0075     0.1806     0.0742     0.3315     2.9409   118.7200     0.2128     0.5063
  373    7.440   2533.37     0.2558     0.0074     0.1767     0.0744     0.3306     2.9198   119.0400     0.2116     0.4897
  374    7.460   2546.26     0.2566     0.0072     0.1729     0.0746     0.3298     2.8441   119.3600     0.2104     0.4732
  375    7.480   2555.69     0.2541     0.0071     0.1725     0.0748     0.3263     2.8219   119.6800     0.2066     0.4702
  376    7.500   2556.34     0.2447     0.0069     0.1761     0.0750     0.3181     2.7869   120.0000     0.1981     0.5031
  377    7.520   2556.96     0.2382     0.0069     0.1825     0.0752     0.3140     2.8474   120.3200     0.1936     0.5437
  378    7.540   2557.62     0.2388     0.0068     0.1891     0.0754     0.3172     2.8361   120.6400     0.1965     0.5659
  379    7.560   2558.27     0.2389     0.0068     0.1956     0.0756     0.3201     2.8392   120.9600     0.1992     0.5916
  380    7.580   2558.94     0.2384     0.0067     0.2008     0.0758     0.3222     2.8034   121.2800     0.2009     0.6154
  381    7.600   2559.57     0.2437     0.0067     0.1955     0.0760     0.3281     2.7527   121.6000     0.2065     0.6043
  382    7.620   2560.23     0.2518     0.0068     0.1889     0.0762     0.3316     2.6880   121.9200     0.2097     0.5425
  383    7.640   2560.88     0.2524     0.0070     0.1932     0.0764     0.3333     2.7811   122.2400     0.2110     0.5508
  384    7.660   2561.51     0.2499     0.0073     0.1905     0.0766     0.3299     2.8741   122.5600     0.2073     0.5493
  385    7.680   2562.15     0.2533     0.0075     0.1887     0.0768     0.3330     2.9672   122.8800     0.2101     0.5379
  386    7.700   2562.80     0.2499     0.0074     0.1892     0.0770     0.3292     2.9426   123.2000     0.2060     0.5425
  387    7.720   2563.43     0.2467     0.0073     0.1909     0.0772     0.3264     2.9294   123.5200     0.2029     0.5557
  388    7.740   2573.81     0.2424     0.0072     0.1946     0.0774     0.3236     2.9146   123.8400     0.1997     0.5813
  389    7.760   2585.52     0.2380     0.0072     0.1982     0.0776     0.3207     2.8998   124.1600     0.1965     0.6086
  390    7.780   2597.23     0.2335     0.0075     0.2019     0.0778     0.3178     3.0520   124.4800     0.1933     0.6359
  391    7.800   2602.54     0.2323     0.0074     0.2106     0.0780     0.3196     3.1800   124.8000     0.1948     0.6669
  392    7.820   2603.50     0.2332     0.0070     0.2110     0.0782     0.3235     3.0262   125.1200     0.1984     0.6897
  393    7.840   2607.88     0.2396     0.0070     0.1994     0.0784     0.3251     3.0004   125.4400     0.1996     0.6270
  394    7.860   2612.26     0.2461     0.0071     0.1878     0.0786     0.3267     3.0429   125.7600     0.2009     0.5642
  395    7.880   2615.74     0.2528     0.0071     0.1923     0.0788     0.3314     2.9149   126.0800     0.2053     0.5272
  396    7.900   2616.70     0.2557     0.0070     0.2058     0.0790     0.3406     2.7424   126.4000     0.2142     0.5748
  397    7.920   2617.62     0.2612     0.0070     0.2027     0.0792     0.3472     2.7239   126.7200     0.2205     0.5700
  398    7.940   2618.57     0.2624     0.0068     0.2030     0.0794     0.3472     2.6047   127.0400     0.2202     0.5566
  399    7.960   2619.52     0.2622     0.0070     0.2086     0.0796     0.3484     2.6666   127.3600     0.2210     0.5680
  400    7.980   2620.48     0.2625     0.0070     0.2142     0.0798     0.3524     2.6519   127.6800     0.2247     0.5967
  401    8.000   2621.39     0.2661     0.0069     0.2136     0.0800     0.3561     2.5993   128.0000     0.2281     0.5889
  402    8.020   2622.34     0.2695     0.0070     0.2125     0.0802     0.3592     2.5932   128.3200     0.2308     0.5776
  403    8.040   2623.24     0.2723     0.0069     0.2073     0.0804     0.3597     2.5348   128.6400     0.2311     0.5528
  404    8.060   2624.22     0.2727     0.0069     0.2087     0.0806     0.3602     2.5359   128.9600     0.2312     0.5518
  405    8.080   2625.15     0.2726     0.0069     0.2064     0.0808     0.3596     2.5156   129.2800     0.2303     0.5488
  406    8.100   2626.09     0.2694     0.0070     0.2055     0.0810     0.3558     2.6081   129.6000     0.2262     0.5512
  407    8.120   2627.05     0.2676     0.0070     0.2092     0.0812     0.3555     2.6141   129.9200     0.2256     0.5676
  408    8.140   2627.96     0.2688     0.0071     0.2092     0.0814     0.3569     2.6377   130.2400     0.2267     0.5660
  409    8.160   2628.91     0.2635     0.0070     0.2087     0.0816     0.3503     2.6471   130.5600     0.2198     0.5691
  410    8.180   2629.83     0.2610     0.0072     0.2118     0.0818     0.3498     2.7417   130.8800     0.2190     0.5929
  411    8.200   2630.77     0.2575     0.0072     0.2082     0.0820     0.3457     2.7714   131.2000     0.2145     0.5966
  412    8.220   2631.67     0.2547     0.0073     0.2090     0.0822     0.3421     2.8507   131.5200     0.2106     0.5984
  413    8.240   2632.62     0.2541     0.0074     0.2133     0.0824     0.3436     2.9052   131.8400     0.2117     0.6167
  414    8.260   2633.57     0.2513     0.0074     0.2123     0.0826     0.3408     2.9395   132.1600     0.2087     0.6259
  415    8.280   2634.49     0.2489     0.0073     0.2168     0.0828     0.3397     2.9007   132.4800     0.2072     0.6434
  416    8.300   2635.41     0.2620     0.0073     0.2212     0.0830     0.3540     2.8953   132.8000     0.2212     0.6153
  417    8.320   2641.77     0.2704     0.0073     0.2240     0.0832     0.3643     2.7487   133.1200     0.2312     0.6078
  418    8.340   2654.83     0.2810     0.0074     0.2256     0.0834     0.3755     2.7984   133.4400     0.2421     0.5868
  419    8.360   2667.90     0.2915     0.0074     0.2277     0.0836     0.3867     2.7762   133.7600     0.2529     0.5657
  420    8.380   2671.28     0.2995     0.0071     0.2211     0.0838     0.3954     2.3752   134.0800     0.2613     0.5530
  421    8.400   2672.23     0.3060     0.0071     0.2098     0.0840     0.3914     2.3580   134.4000     0.2570     0.4637
  422    8.420   2673.16     0.3069     0.0070     0.2145     0.0842     0.3951     2.2884   134.7200     0.2604     0.4836
  423    8.440   2674.12     0.3279     0.0073     0.2201     0.0844     0.4145     2.2437   135.0400     0.2794     0.4382
  424    8.460   2675.07     0.3034     0.0077     0.2214     0.0846     0.3968     2.5789   135.3600     0.2615     0.5275
  425    8.480   2675.98     0.2922     0.0078     0.2182     0.0848     0.3837     2.6477   135.6800     0.2480     0.5366
  426    8.500   2676.90     0.2886     0.0078     0.2221     0.0850     0.3821     2.7142   136.0000     0.2461     0.5593
  427    8.520   2677.88     0.2929     0.0081     0.2095     0.0852     0.3824     2.7746   136.3200     0.2461     0.5196
  428    8.540   2678.80     0.2953     0.0078     0.2096     0.0854     0.3827     2.6453   136.6400     0.2460     0.4982
  429    8.560   2679.72     0.2888     0.0077     0.2178     0.0856     0.3794     2.6426   136.9600     0.2425     0.5368
  430    8.580   2680.64     0.2876     0.0075     0.2230     0.0858     0.3803     2.5879   137.2800     0.2431     0.5559
  431    8.600   2681.59     0.2887     0.0074     0.2273     0.0860     0.3835     2.5710   137.6000     0.2459     0.5681
  432    8.620   2682.50     0.2987     0.0071     0.2219     0.0862     0.3941     2.4124   137.9200     0.2562     0.5497
  433    8.640   2683.45     0.2957     0.0069     0.2106     0.0864     0.3827     2.3161   138.2400     0.2445     0.4937
  434    8.660   2684.42     0.2993     0.0068     0.2170     0.0866     0.3911     2.2865   138.5600     0.2526     0.5230
  435    8.680   2685.33     0.2924     0.0068     0.2044     0.0868     0.3797     2.3099   138.8800     0.2408     0.5022
  436    8.700   2686.29     0.2796     0.0067     0.2110     0.0870     0.3666     2.3363   139.2000     0.2274     0.5283
  437    8.720   2687.22     0.2709     0.0070     0.2247     0.0872     0.3635     2.5648   139.5200     0.2240     0.5956
  438    8.740   2688.16     0.2720     0.0072     0.2314     0.0874     0.3675     2.6557   139.8400     0.2276     0.6150
  439    8.760   2689.11     0.2726     0.0073     0.2279     0.0876     0.3693     2.6934   140.1600     0.2291     0.6224
  440    8.780   2690.03     0.2695     0.0075     0.2291     0.0878     0.3649     2.7582   140.4800     0.2244     0.6205
  441    8.800   2690.94     0.2635     0.0078     0.2332     0.0880     0.3611     2.9379   140.8000     0.2203     0.6554
  442    8.820   2691.90     0.2592     0.0079     0.2295     0.0882     0.3567     3.0150   141.1200     0.2156     0.6673
  443    8.840   2693.83     0.2624     0.0076     0.2138     0.0884     0.3549     2.9840   141.4400     0.2135     0.6216
  444    8.860   2697.77     0.2816     0.0075     0.1951     0.0886     0.3663     2.9191   141.7600     0.2245     0.5118
  445    8.880   2701.70     0.3008     0.0072     0.1816     0.0888     0.3776     2.8311   142.0800     0.2355     0.4020
  446    8.900   2703.25     0.2972     0.0073     0.1979     0.0890     0.3780     2.4251   142.4000     0.2356     0.4388
  447    8.920   2704.20     0.3000     0.0075     0.2124     0.0892     0.3876     2.5126   142.7200     0.2448     0.4865
  448    8.940   2705.14     0.3087     0.0070     0.2133     0.0894     0.3984     2.2934   143.0400     0.2554     0.4861
  449    8.960   2706.09     0.3081     0.0067     0.2140     0.0896     0.3988     2.1765   143.3600     0.2555     0.4948
  450    8.980   2707.01     0.3157     0.0077     0.2028     0.0898     0.4018     2.4834   143.6800     0.2581     0.4459
  451    9.000   2707.93     0.2942     0.0072     0.2091     0.0900     0.3802     2.3773   144.0000     0.2362     0.4857
  452    9.020   2708.84     0.2936     0.0070     0.2208     0.0902     0.3854     2.4156   144.3200     0.2410     0.5325
  453    9.040   2709.80     0.3201     0.0067     0.2172     0.0904     0.4119     2.2290   144.6400     0.2673     0.4813
  454    9.060   2710.75     0.3466     0.0063     0.2207     0.0906     0.4381     1.8108   144.9600     0.2932     0.4357
  455    9.080   2711.67     0.3054     0.0064     0.2278     0.0908     0.4015     1.9940   145.2800     0.2563     0.5385
  456    9.100   2712.62     0.3006     0.0065     0.2367     0.0910     0.3994     2.1412   145.6000     0.2538     0.5676
  457    9.120   2713.49     0.2945     0.0063     0.2342     0.0912     0.3942     2.1080   145.9200     0.2483     0.5885
  458    9.140   2714.45     0.2987     0.0062     0.2253     0.0914     0.3941     2.1098   146.2400     0.2479     0.5478
  459    9.160   2715.41     0.2908     0.0062     0.2243     0.0916     0.3848     2.0349   146.5600     0.2382     0.5549
  460    9.180   2716.35     0.2716     0.0061     0.2264     0.0918     0.3660     2.1848   146.8800     0.2191     0.6065
  461    9.200   2717.31     0.2734     0.0061     0.2326     0.0920     0.3706     2.2357   147.2000     0.2234     0.6238
  462    9.220   2718.24     0.2757     0.0058     0.2336     0.0922     0.3737     2.1173   147.5200     0.2262     0.6242
  463    9.240   2719.15     0.2739     0.0058     0.2391     0.0924     0.3733     2.1195   147.8400     0.2255     0.6404
  464    9.260   2720.07     0.2749     0.0061     0.2357     0.0926     0.3748     2.2042   148.1600     0.2266     0.6404
  465    9.280   2721.02     0.2695     0.0060     0.2404     0.0928     0.3693     2.2089   148.4800     0.2208     0.6560
  466    9.300   2722.02     0.2731     0.0060     0.2407     0.0930     0.3736     2.2174   148.8000     0.2248     0.6510
  467    9.320   2722.93     0.2779     0.0058     0.2423     0.0932     0.3803     2.1172   149.1200     0.2312     0.6520
  468    9.340   2723.89     0.2837     0.0058     0.2410     0.0934     0.3844     2.0290   149.4400     0.2350     0.6228
  469    9.360   2724.83     0.2820     0.0062     0.2520     0.0936     0.3863     2.2142   149.7600     0.2365     0.6538
  470    9.380   2725.76     0.3003     0.0063     0.2480     0.0938     0.4057     2.1776   150.0800     0.2557     0.6161
  471    9.400   2726.72     0.3190     0.0066     0.2546     0.0940     0.4244     2.1201   150.4000     0.2740     0.5735
  472    9.420   2727.64     0.3440     0.0069     0.2384     0.0942     0.4494     2.1040   150.7200     0.2986     0.5250
  473    9.440   2728.59     0.3505     0.0070     0.2327     0.0944     0.4471     1.9900   151.0400     0.2960     0.4578
  474    9.460   2729.50     0.3459     0.0063     0.2375     0.0946     0.4466     1.7979   151.3600     0.2952     0.4919
  475    9.480   2730.42     0.3370     0.0067     0.2369     0.0948     0.4368     1.9531   151.6800     0.2851     0.5009
  476    9.500   2731.37     0.3180     0.0071     0.2453     0.0950     0.4190     2.1532   152.0000     0.2670     0.5452
  477    9.520   2732.28     0.3070     0.0071     0.2603     0.0952     0.4141     2.3049   152.3200     0.2618     0.6104
  478    9.540   2733.24     0.3176     0.0070     0.2735     0.0954     0.4312     2.2351   152.6400     0.2786     0.6290
  479    9.560   2734.20     0.3350     0.0067     0.2392     0.0956     0.4439     2.0730   152.9600     0.2909     0.5618
  480    9.580   2735.16     0.3075     0.0066     0.2481     0.0958     0.4099     2.1511   153.2800     0.2566     0.5773
  481    9.600   2736.07     0.2883     0.0065     0.2653     0.0960     0.3973     2.2565   153.6000     0.2437     0.6710
  482    9.620   2737.03     0.2819     0.0068     0.2755     0.0962     0.3967     2.4243   153.9200     0.2428     0.7296
  483    9.640   2737.94     0.2874     0.0070     0.2788     0.0964     0.4047     2.4799   154.2400     0.2504     0.7300
  484    9.660   2738.85     0.2946     0.0068     0.2753     0.0966     0.4110     2.3337   154.5600     0.2565     0.7045
  485    9.680   2739.76     0.2982     0.0069     0.2687     0.0968     0.4118     2.3188   154.8800     0.2570     0.6758
  486    9.700   2740.68     0.3031     0.0071     0.2592     0.0970     0.4140     2.3761   155.2000     0.2588     0.6451
  487    9.720   2741.63     0.3106     0.0071     0.2618     0.0972     0.4201     2.3111   155.5200     0.2646     0.6186
  488    9.740   2742.55     0.3081     0.0080     0.2710     0.0974     0.4201     2.5706   155.8400     0.2642     0.6405
  489    9.760   2743.50     0.2986     0.0097     0.2803     0.0976     0.4148     3.2609   156.1600     0.2587     0.6930
  490    9.780   2744.46     0.3141     0.0102     0.2900     0.0978     0.4342     3.2993   156.4800     0.2778     0.6777
  491    9.800   2745.41     0.3267     0.0092     0.2969     0.0980     0.4504     2.8467   156.8000     0.2936     0.6691
  492    9.820   2750.67     0.2966     0.0068     0.2558     0.0982     0.4129     2.0772   157.1200     0.2558     0.7059
  493    9.840   2760.17     0.2523     0.0055     0.2350     0.0984     0.3508     2.2089   157.4400     0.1934     0.7041
  494    9.860   2761.25     0.3763     0.0077     0.2634     0.0986     0.4809     2.0978   157.7600     0.3231     0.4653
  495    9.880   2762.27     0.4856     0.0113     0.3022     0.0988     0.6071     2.3756   158.0800     0.4490     0.4273
  496    9.900   2763.25     1.1022     0.0156     0.2919     0.0990     1.2329     1.6993   158.4000     1.0745     0.2231
  497    9.920   2764.21     3.0859     0.0185     0.2122     0.0992     3.1826     0.7093   158.7200     3.0238     0.0461
  498    9.940   2765.34     5.5070     0.0238     0.0805     0.0994     5.5598     0.4653   159.0400     5.4007     0.0055
  499    9.960   2767.82     5.7921     0.0302     0.0875     0.0996     5.8335     0.5761   159.3600     5.6742     0.0000
  500    9.980   2768.84     6.4448     0.0359     0.0960     0.0998     6.4837     0.5645   159.6800     6.3240    -0.0011
  501   10.000   2769.80     6.5333     0.0394     0.1013     0.1000     6.5752     0.6123   160.0000     6.4152     0.0000
  502   10.020   2770.71     6.5345     0.0416     0.1046     0.1002     6.5776     0.6508   160.3200     6.4173     0.0004
  503   10.040   2771.60     6.4024     0.0438     0.1056     0.1004     6.4460     0.6893   160.6400     6.2853     0.0005
  504   10.060   2772.59     6.1504     0.0452     0.1083     0.1006     6.1959     0.7264   160.9600     6.0350     0.0013
  505   10.080   2773.55     5.8478     0.0455     0.1023     0.1008     5.8911     0.7672   161.2800     5.7298     0.0004
  506   10.100   2774.47     5.3340     0.0479     0.1032     0.1010     5.3776     0.8764   161.6000     5.2160     0.0005
  507   10.120   2785.65     4.4632     0.0498     0.1010     0.1012     4.5059     0.9373   161.9200     4.3440    -0.0002
  508   10.140   2797.22     3.5826     0.0467     0.0988     0.1014     3.6244     0.8800   162.2400     3.4622    -0.0009
  509   10.160   2808.52     2.7052     0.0461     0.0988     0.1016     2.7461     0.9201   162.5600     2.5835    -0.0016
  510   10.180   2809.44     1.9950     0.0454     0.1015     0.1018     2.0374     1.9574   162.8800     1.8745    -0.0005
  511   10.200   2810.38     1.4381     0.0417     0.1122     0.1020     1.4853     2.4879   163.2000     1.3221     0.0082
  512   10.220   2811.34     1.0272     0.0385     0.1051     0.1022     1.0722     3.2262   163.5200     0.9086     0.0054
  513   10.240   2812.24     0.8926     0.0338     0.1093     0.1024     0.9363     3.5662   163.8400     0.7724     0.0022
  514   10.260   2813.18     0.7562     0.0296     0.1245     0.1026     0.8073     3.5725   164.1600     0.6431     0.0298
  515   10.280   2814.10     0.5951     0.0259     0.1323     0.1028     0.6487     3.9253   164.4800     0.4842     0.0515
  516   10.300   2815.05     0.4902     0.0210     0.1359     0.1030     0.5457     3.9786   164.8000     0.3809     0.0771
  517   10.320   2816.00     0.4313     0.0144     0.1989     0.1032     0.5003     3.1042   165.1200     0.3351     0.1820
  518   10.340   2816.92     0.4043     0.0097     0.2597     0.1034     0.5078     2.3306   165.4400     0.3423     0.4178
  519   10.360   2817.83     0.3924     0.0067     0.2866     0.1036     0.5092     1.6795   165.7600     0.3435     0.5082
  520   10.380   2818.82     0.3931     0.0063     0.3027     0.1038     0.5188     1.6096   166.0800     0.3527     0.5541
  521   10.400   2819.74     0.4000     0.0061     0.3038     0.1040     0.5276     1.5431   166.4000     0.3612     0.5532
  522   10.420   2820.62     0.4021     0.0062     0.3077     0.1042     0.5299     1.5428   166.7200     0.3632     0.5512
  523   10.440   2821.57     0.4072     0.0063     0.3119     0.1044     0.5382     1.5584   167.0400     0.3712     0.5592
  524   10.460   2822.53     0.4065     0.0066     0.3070     0.1046     0.5349     1.6106   167.3600     0.3676     0.5472
  525   10.480   2823.48     0.3967     0.0069     0.3155     0.1048     0.5278     1.7417   167.6800     0.3602     0.5763
  526   10.500   2824.40     0.3924     0.0072     0.3215     0.1050     0.5267     1.8146   168.0000     0.3587     0.5989
  527   10.520   2825.31     0.3886     0.0076     0.3269     0.1052     0.5252     1.9333   168.3200     0.3568     0.6162
  528   10.540   2826.22     0.3878     0.0079     0.3307     0.1054     0.5262     2.0489   168.6400     0.3575     0.6265
  529   10.560   2827.18     0.3940     0.0070     0.3334     0.1056     0.5338     1.8039   168.9600     0.3648     0.6227
  530   10.580   2828.09     0.3936     0.0050     0.3386     0.1058     0.5346     1.2653   169.2800     0.3653     0.6295
  531   10.600   2829.05     0.3962     0.0037     0.3445     0.1060     0.5404     0.9500   169.6000     0.3708     0.6400
  532   10.620   2829.96     0.4164     0.0069     0.3533     0.1062     0.5640     1.6952   169.9200     0.3940     0.6220
  533   10.640   2830.89     0.4437     0.0081     0.3670     0.1064     0.5950     1.8950   170.2400     0.4247     0.5977
  534   10.660   2831.83     0.9612     0.0072     0.3763     0.1066     1.1217     1.1310   170.5600     0.9511     0.3132
  535   10.680   2832.79     2.3378     0.0106     0.2217     0.1068     2.4586     0.5722   170.8800     2.2877     0.0852
  536   10.700   2833.72     3.6566     0.0138     0.1325     0.1070     3.7183     0.4209   171.2000     3.5471     0.0116
  537   10.720   2834.63     5.0541     0.0154     0.0723     0.1072     5.1007     0.3248   171.5200     4.9291     0.0012
  538   10.740   2835.63     7.3003     0.0202     0.1458     0.1074     7.3477     0.2931   171.8400     7.1758     0.0006
  539   10.760   2836.63     9.2543     0.0290     0.1379     0.1076     9.3065     0.3306   172.1600     9.1344     0.0018
  540   10.780   2837.59    11.1733     0.0219     0.1057     0.1078    11.2254     0.2021   172.4800    11.0530     0.0015
  541   10.800   2838.58    13.3566     0.0288     0.0897     0.1080    13.3919     0.2249   172.8000    13.2191    -0.0018
  542   10.820   2839.50    14.6418     0.0309     0.0947     0.1082    14.6863     0.2160   173.1200    14.5132    -0.0002
  543   10.840   2847.32    16.3398     0.0354     0.1004     0.1084    16.3808     0.2305   173.4400    16.2074    -0.0007
  544   10.860   2858.19    16.1544     0.0398     0.1154     0.1086    16.2021     0.2451   173.7600    16.0284     0.0003
  545   10.880   2859.51    18.2259     0.0453     0.0986     0.1088    18.2722     0.2459   174.0800    18.0981     0.0001
  546   10.900   2861.37    20.5701     0.0508     0.1106     0.1090    20.6193     0.2462   174.4000    20.4449     0.0004
  547   10.920   2866.32    23.3750     0.0596     0.0912     0.1092    23.4156     0.2642   174.7200    23.2408    -0.0005
  548   10.940   2872.79    24.9543     0.0690     0.0753     0.1094    24.9883     0.3059   175.0400    24.8132    -0.0011
  549   10.960   2879.26    26.5338     0.0954     0.0595     0.1096    26.5610     0.4230   175.3600    26.3857    -0.0017
  550   10.980   2883.93    27.6171     0.0853     0.0623     0.1098    27.6426     0.3475   175.6800    27.4669    -0.0018
  551   11.000   2887.28    28.3352     0.0941     0.0666     0.1100    28.3626     0.3831   176.0000    28.1866    -0.0016
  552   11.020   2890.62    29.0533     0.1057     0.0756     0.1102    29.0825     0.4304   176.3200    28.9062    -0.0014
  553   11.040   2894.24    27.5994     0.1144     0.0810     0.1104    27.6430     0.4273   176.6400    27.4664    -0.0002
  554   11.060   2897.06    25.7925     0.1158     0.1180     0.1106    25.8453     0.4202   176.9600    25.6684     0.0006
  555   11.080   2898.23    28.4204     0.1173     0.0656     0.1108    28.4453     0.4130   177.2800    28.2680    -0.0018
  556   11.100   2899.14    28.1155     0.1274     0.0930     0.1110    28.1463     0.4493   177.6000    27.9687    -0.0013
  557   11.120   2900.10    27.6006     0.1176     0.0969     0.1112    27.6465     0.4245   177.9200    27.4686    -0.0001
  558   11.140   2901.53    27.5839     0.1159     0.1013     0.1114    27.6272     0.4316   178.2400    27.4490    -0.0003
  559   11.160   2904.19    27.6517     0.1075     0.0959     0.1116    27.6928     0.4238   178.5600    27.5143    -0.0005
  560   11.180   2906.86    27.7195     0.1020     0.0906     0.1118    27.7584     0.4022   178.8800    27.5795    -0.0007
  561   11.200   2910.80    24.2959     0.0989     0.0864     0.1120    24.3474     0.3912   179.2000    24.1682     0.0004
  562   11.220   2911.83    27.6420     0.0985    -0.0479     0.1122    27.6333     0.3569   179.5200    27.4538    -0.0048
  563   11.240   2912.80    27.7108     0.0985    -0.0908     0.1124    27.6763     0.3548   179.8400    27.4965    -0.0071
  564   11.260   2913.71    27.0492     0.1188    -0.0853     0.1126    27.0148     0.4329   180.1600    26.8346    -0.0073
  565   11.280   2914.59    26.2566     0.1046    -0.0271     0.1128    26.2290     0.3944   180.4800    26.0485    -0.0068
  566   11.300   2915.49    25.4794     0.1064     0.0045     0.1130    25.4768     0.4136   180.8000    25.2960    -0.0047
  567   11.320   2916.41    24.8515                0.0282     0.1132    24.8616              181.1200    24.6805    -0.0036
  568   11.340   2917.32    24.3707                0.0388     0.1134    24.3844              181.4400    24.2030    -0.0033
  569   11.360   2921.58    22.0355                0.0993     0.1136    22.0826              181.7600    21.9009    -0.0001
  570   11.380   2922.91    25.1276                0.0893     0.1138    25.1633              182.0800    24.9812    -0.0012
  571   11.400   2923.87    26.6009                0.1070     0.1140    26.6431              182.4000    26.4607    -0.0005
  572   11.414   2924.50    27.4963                           0.1141    27.5434              182.6194    27.3607    -0.0001
 
 
