

 Program UNIPLOT                         version 05.36.02
 _______________
 (c) Fugro Netherlands Marine, Nootdorp, The Netherlands


 ASCII representation of data plotted on a graph.

 This ASCII file presents data interpolated to values per fixed depth interval.
 The data are corrected for the depth-offset differences between the various 
 transducers in the penetrometer.

 The records at the start of penetration may include no values or anomalous
 values where a depth offset implies incomplete penetration of a particular
 sensor into the ground.

 The records at the end of penetration may include no values for data channels
 where the transducer did not reach this depth.

 The reference level for test values is (1) the ground surface for onshore tests and (2) the seafloor for nearshore and offshore tests.

 UNICAS data file          : CPT-2004.000                            
 Output using command file : PlotASCII.cmd

 ASCII file created at : date          :05-Jul-2022
                         time          :21:33:46
 Project number                        :20024805                                                                                            
 Date of testing                       :28-Jun-2022                                                                                         
 Location                              :Hong Kong Offshore Wind Farm Project                                                                
 Test name                             :CPT-2004
 Penetrometer                          :F7.5CKE2HAW2/B/3285
 Serial no                             :1701-3285

 Table description:
 Column ID                             :Parameter name
 ___________________________________________________________________________________
 Rec                                   :Record ID, Record ID [-]
 Depth                                 :Depth, Depth [m]
 Time                                  :Time, Time [s]
 Cone                                  :Cone Resistance, Cone Resistance [MPa]
 Friction                              :Sleeve Friction, Sleeve Friction [MPa]
 Pore 2                                :Porewater Pressure, Porewater Pressure at Shoulder [MPa]
 HydroPress                            :Hydrostatic Pressure, Hydrostatic Pressure [MPa]
 qt                                    :Total Cone Resistance, Total Cone Resistance [MPa]
 Fric_ratio                            :Friction Ratio, Friction Ratio [%]
 SigmaVert                             :Vertical stress, Vertical stress [kPa] as specified in ground model
 Qnet                                  :Net Cone Resistance, Net Cone Resistance [MPa], unit weight as specified in ground model
 Bq                                    :Porewater Pressure Ratio, Porewater Pressure Ratio [-], unit weight as specified in ground model


 Data table:
  Rec    Depth      Time       Cone   Friction     Pore 2 HydroPress         qt Fric_ratio  SigmaVert       Qnet         Bq
   No        m         s        MPa        MPa        MPa        MPa        MPa          %        kPa        MPa          -
    1    0.000   2098.91     0.0000                           0.0000     0.0000                0.0000     0.0000           
    2    0.020   2099.88     0.0037                0.0004     0.0002     0.0039                0.3200     0.0036     0.0448
    3    0.040   2100.85     0.0012                0.0005     0.0004     0.0014                0.6400     0.0008     0.1237
    4    0.060   2101.84     0.0050     0.0001     0.0005     0.0006     0.0052     4.6442     0.9600     0.0043    -0.0202
    5    0.080   2102.83     0.0028     0.0003     0.0009     0.0008     0.0031    10.7511     1.2800     0.0018    -0.0463
    6    0.100   2103.81     0.0039     0.0003     0.0009     0.0010     0.0042    10.0635     1.6000     0.0026    -0.0498
    7    0.120   2104.82     0.0030     0.0003     0.0012     0.0012     0.0035     8.0515     1.9200     0.0016     0.0101
    8    0.140   2105.78     0.0060     0.0002     0.0010     0.0014     0.0065     4.1472     2.2400     0.0042    -0.0969
    9    0.160   2106.75     0.0071     0.0003     0.0014     0.0016     0.0076     7.0742     2.5600     0.0051    -0.0866
   10    0.180   2107.72     0.0058     0.0002     0.0017     0.0018     0.0065     2.4749     2.8800     0.0036    -0.0858
   11    0.200   2108.72     0.0075     0.0002     0.0024     0.0020     0.0084     1.9379     3.2000     0.0052     0.0260
   12    0.220   2109.70     0.0092     0.0002     0.0025     0.0022     0.0103     2.2923     3.5200     0.0068     0.0567
   13    0.240   2110.69     0.0116     0.0003     0.0015     0.0024     0.0124     2.5555     3.8400     0.0086    -0.0485
   14    0.260   2111.67     0.0126     0.0006     0.0014     0.0026     0.0131     4.4566     4.1600     0.0089    -0.1652
   15    0.280   2112.66     0.0173     0.0005     0.0018     0.0028     0.0181     3.9564     4.4800     0.0136    -0.0679
   16    0.300   2113.65     0.0213     0.0007     0.0000     0.0030     0.0216     3.7713     4.8000     0.0168    -0.1381
   17    0.320   2114.61     0.0216     0.0007    -0.0017     0.0032     0.0210     3.2370     5.1200     0.0159    -0.2846
   18    0.340   2115.57     0.0189     0.0008    -0.0020     0.0034     0.0178     4.0802     5.4400     0.0123    -0.4939
   19    0.360   2116.56     0.0181     0.0006    -0.0003     0.0036     0.0178     3.3134     5.7600     0.0120    -0.3679
   20    0.380   2117.54     0.0193     0.0006     0.0001     0.0038     0.0193     3.4652     6.0800     0.0132    -0.2913
   21    0.400   2118.50     0.0210     0.0007     0.0008     0.0040     0.0212     3.3665     6.4000     0.0148    -0.2367
   22    0.420   2119.46     0.0177     0.0007     0.0019     0.0042     0.0183     3.7741     6.7200     0.0115    -0.2455
   23    0.440   2120.47     0.0203     0.0007     0.0026     0.0044     0.0214     3.2785     7.0400     0.0143    -0.1268
   24    0.460   2121.46     0.0181     0.0005     0.0027     0.0046     0.0193     3.0015     7.3600     0.0119    -0.1506
   25    0.480   2122.47     0.0214     0.0008     0.0030     0.0048     0.0225     3.6595     7.6800     0.0148    -0.1437
   26    0.500   2123.45     0.0214     0.0006     0.0037     0.0050     0.0228     2.8680     8.0000     0.0148    -0.1133
   27    0.520   2124.40     0.0245     0.0006     0.0041     0.0052     0.0261     2.4925     8.3200     0.0178    -0.0713
   28    0.540   2125.43     0.0255     0.0007     0.0051     0.0054     0.0275     2.6949     8.6400     0.0189    -0.0344
   29    0.560   2126.40     0.0285     0.0006     0.0049     0.0056     0.0306     2.0637     8.9600     0.0216    -0.0336
   30    0.580   2127.37     0.0273     0.0007     0.0049     0.0058     0.0294     2.6279     9.2800     0.0201    -0.0447
   31    0.600   2128.32     0.0249     0.0008     0.0054     0.0060     0.0271     3.1619     9.6000     0.0175    -0.0432
   32    0.620   2129.36     0.0276     0.0008     0.0045     0.0062     0.0297     2.6036     9.9200     0.0198    -0.0577
   33    0.640   2130.34     0.0314     0.0010     0.0061     0.0064     0.0337     3.0505    10.2400     0.0234    -0.0385
   34    0.660   2131.31     0.0338     0.0008     0.0068     0.0066     0.0365     2.3178    10.5600     0.0259    -0.0063
   35    0.680   2132.29     0.0347     0.0008     0.0057     0.0068     0.0374     2.2636    10.8800     0.0265    -0.0083
   36    0.700   2133.30     0.0370     0.0010    -0.0006     0.0070     0.0378     2.9542    11.2000     0.0266    -0.1885
   37    0.720   2134.24     0.0328     0.0007     0.0013     0.0072     0.0326     2.0602    11.5200     0.0211    -0.3669
   38    0.740   2135.20     0.0325     0.0007     0.0037     0.0074     0.0339     1.9326    11.8400     0.0221    -0.1854
   39    0.760   2136.18     0.0312     0.0006     0.0054     0.0076     0.0331     1.9185    12.1600     0.0210    -0.1555
   40    0.780   2137.17     0.0314     0.0005     0.0072     0.0078     0.0342     1.6420    12.4800     0.0218    -0.0515
   41    0.800   2138.16     0.0269     0.0007     0.0081     0.0080     0.0302     2.7216    12.8000     0.0174    -0.0054
   42    0.820   2139.12     0.0286     0.0005     0.0095     0.0082     0.0324     1.5685    13.1200     0.0193     0.0427
   43    0.840   2140.14     0.0293     0.0006     0.0102     0.0084     0.0335     1.8650    13.4400     0.0201     0.0784
   44    0.860   2141.09     0.0317     0.0005     0.0108     0.0086     0.0362     1.4966    13.7600     0.0224     0.0919
   45    0.880   2142.09     0.0316     0.0005     0.0114     0.0088     0.0363     1.6251    14.0800     0.0222     0.1023
   46    0.900   2143.05     0.0324     0.0003     0.0118     0.0090     0.0374     0.9414    14.4000     0.0230     0.1219
   47    0.920   2144.03     0.0353     0.0007     0.0124     0.0092     0.0405     2.0838    14.7200     0.0257     0.1161
   48    0.940   2145.03     0.0357     0.0008     0.0127     0.0094     0.0409     2.2175    15.0400     0.0258     0.1136
   49    0.960   2146.02     0.0373     0.0008     0.0119     0.0096     0.0425     2.1978    15.3600     0.0272     0.1044
   50    0.980   2147.01     0.0423     0.0010     0.0112     0.0098     0.0471     2.3848    15.6800     0.0314     0.0489
   51    1.000   2147.99     0.0429     0.0013     0.0107     0.0100     0.0475     3.1410    16.0000     0.0315     0.0346
   52    1.020   2148.99     0.0422     0.0012     0.0085     0.0102     0.0460     2.7720    16.3200     0.0297    -0.0381
   53    1.040   2149.97     0.0427     0.0012     0.0085     0.0104     0.0463     2.7537    16.6400     0.0297    -0.0570
   54    1.060   2150.94     0.0381     0.0011     0.0088     0.0106     0.0418     2.9327    16.9600     0.0248    -0.0743
   55    1.080   2151.94     0.0345     0.0013     0.0115     0.0108     0.0390     3.5202    17.2800     0.0218    -0.0019
   56    1.100   2152.92     0.0388     0.0010     0.0132     0.0110     0.0439     2.8390    17.6000     0.0263     0.0516
   57    1.120   2153.90     0.0357     0.0010     0.0148     0.0112     0.0417     2.9062    17.9200     0.0238     0.1259
   58    1.140   2154.87     0.0392     0.0007     0.0163     0.0114     0.0459     2.0035    18.2400     0.0276     0.1583
   59    1.160   2155.90     0.0356     0.0010     0.0175     0.0116     0.0428     2.7030    18.5600     0.0242     0.2268
   60    1.180   2156.87     0.0326     0.0009     0.0181     0.0118     0.0401     2.4490    18.8800     0.0212     0.2910
   61    1.200   2157.81     0.0400     0.0009     0.0190     0.0120     0.0478     2.1666    19.2000     0.0286     0.2316
   62    1.220   2158.78     0.0394     0.0008     0.0200     0.0122     0.0477     2.0730    19.5200     0.0281     0.2652
   63    1.240   2159.77     0.0407     0.0010     0.0204     0.0124     0.0493     2.6066    19.8400     0.0294     0.2696
   64    1.260   2160.76     0.0406     0.0008     0.0210     0.0126     0.0493     1.9658    20.1600     0.0291     0.2783
   65    1.280   2161.74     0.0440     0.0008     0.0218     0.0128     0.0531     1.8706    20.4800     0.0326     0.2703
   66    1.300   2162.73     0.0457     0.0010     0.0226     0.0130     0.0551     2.3121    20.8000     0.0343     0.2693
   67    1.320   2163.70     0.0474     0.0012     0.0232     0.0132     0.0571     2.4462    21.1200     0.0359     0.2754
   68    1.340   2164.68     0.0484     0.0010     0.0237     0.0134     0.0583     2.1689    21.4400     0.0368     0.2717
   69    1.360   2165.64     0.0465     0.0015     0.0240     0.0136     0.0566     3.3030    21.7600     0.0348     0.2988
   70    1.380   2166.64     0.0491     0.0013     0.0215     0.0138     0.0585     2.7117    22.0800     0.0364     0.2369
   71    1.400   2167.63     0.0490     0.0013     0.0212     0.0140     0.0579     2.6574    22.4000     0.0355     0.2008
   72    1.420   2168.60     0.0491     0.0009     0.0225     0.0142     0.0584     1.8905    22.7200     0.0357     0.2197
   73    1.440   2169.59     0.0501     0.0013     0.0244     0.0144     0.0601     2.5872    23.0400     0.0370     0.2490
   74    1.460   2170.59     0.0515     0.0015     0.0261     0.0146     0.0622     2.8061    23.3600     0.0389     0.2820
   75    1.480   2171.58     0.0524     0.0011     0.0273     0.0148     0.0637     2.1365    23.6800     0.0400     0.3036
   76    1.500   2172.58     0.0527     0.0008     0.0281     0.0150     0.0644     1.4535    24.0000     0.0404     0.3183
   77    1.520   2173.55     0.0557     0.0014     0.0292     0.0152     0.0677     2.6692    24.3200     0.0434     0.3114
   78    1.540   2174.56     0.0557     0.0013     0.0308     0.0154     0.0685     2.2711    24.6400     0.0438     0.3405
   79    1.560   2175.53     0.0596     0.0014     0.0326     0.0156     0.0733     2.4003    24.9600     0.0483     0.3532
   80    1.580   2176.49     0.0612     0.0014     0.0329     0.0158     0.0748     2.2467    25.2800     0.0496     0.3373
   81    1.600   2177.49     0.0670     0.0010     0.0335     0.0160     0.0810     1.5595    25.6000     0.0554     0.3130
   82    1.620   2178.46     0.0663     0.0011     0.0341     0.0162     0.0805     1.6591    25.9200     0.0545     0.3200
   83    1.640   2179.44     0.0649     0.0013     0.0357     0.0164     0.0796     2.0661    26.2400     0.0534     0.3495
   84    1.660   2180.41     0.0631     0.0016     0.0359     0.0166     0.0781     2.5704    26.5600     0.0515     0.3692
   85    1.680   2181.40     0.0630     0.0020     0.0351     0.0168     0.0782     3.2437    26.8800     0.0513     0.3779
   86    1.700   2182.38     0.0716     0.0016     0.0334     0.0170     0.0860     2.3845    27.2000     0.0588     0.2929
   87    1.720   2183.40     0.0747     0.0016     0.0324     0.0172     0.0882     2.1630    27.5200     0.0607     0.2445
   88    1.740   2184.35     0.0798     0.0020     0.0314     0.0174     0.0934     2.6069    27.8400     0.0656     0.2291
   89    1.760   2185.29     0.0919     0.0026     0.0316     0.0176     0.1052     2.6919    28.1600     0.0770     0.1820
   90    1.780   2186.27     0.1385     0.0040     0.0341     0.0178     0.1530     2.4107    28.4800     0.1246     0.1373
   91    1.800   2187.28     0.3140     0.0055     0.0262     0.0180     0.3276     2.1295    28.8000     0.2988     0.0509
   92    1.820   2188.24     0.3767     0.0067     0.0138     0.0182     0.3828     1.8421    29.1200     0.3537    -0.0099
   93    1.840   2189.24     0.4943     0.0061     0.0166     0.0184     0.5008     1.2820    29.4400     0.4714    -0.0061
   94    1.860   2190.21     0.3846     0.0062     0.0181     0.0186     0.3922     1.4184    29.7600     0.3624    -0.0020
   95    1.880   2200.33     0.2575     0.0066     0.0222     0.0188     0.2663     2.0593    30.0800     0.2362     0.0411
   96    1.900   2212.64     0.1793     0.0062     0.0263     0.0190     0.1898     1.9476    30.4000     0.1594     0.0970
   97    1.920   2224.96     0.1011     0.0050     0.0307     0.0192     0.1133     2.0039    30.7200     0.0826     0.1529
   98    1.940   2228.62     0.0839     0.0040     0.0361     0.0194     0.0986     4.9643    31.0400     0.0676     0.2297
   99    1.960   2229.63     0.0856     0.0026     0.0369     0.0196     0.1010     3.0939    31.3600     0.0697     0.2443
  100    1.980   2230.63     0.0830     0.0023     0.0397     0.0198     0.0993     2.6953    31.6800     0.0676     0.2818
  101    2.000   2231.57     0.0790     0.0019     0.0420     0.0200     0.0963     2.4199    32.0000     0.0643     0.3289
  102    2.020   2232.56     0.0761     0.0021     0.0434     0.0202     0.0942     2.7076    32.3200     0.0619     0.3708
  103    2.040   2233.55     0.0754     0.0020     0.0431     0.0204     0.0936     2.6188    32.6400     0.0609     0.3758
  104    2.060   2234.53     0.0729     0.0018     0.0438     0.0206     0.0914     2.5254    32.9600     0.0584     0.3988
  105    2.080   2235.52     0.0730     0.0017     0.0439     0.0208     0.0917     2.3839    33.2800     0.0584     0.4036
  106    2.100   2236.51     0.0725     0.0021     0.0452     0.0210     0.0912     2.9259    33.6000     0.0576     0.4088
  107    2.120   2237.49     0.0759     0.0020     0.0456     0.0212     0.0951     2.5881    33.9200     0.0612     0.4010
  108    2.140   2238.47     0.0799     0.0018     0.0472     0.0214     0.0996     2.3194    34.2400     0.0654     0.3899
  109    2.160   2239.44     0.0822     0.0019     0.0459     0.0216     0.1017     2.3449    34.5600     0.0672     0.3710
  110    2.180   2240.41     0.0788     0.0020     0.0418     0.0218     0.0971     2.4744    34.8800     0.0622     0.3502
  111    2.200   2241.42     0.0806     0.0021     0.0389     0.0220     0.0973     2.4996    35.2000     0.0621     0.2844
  112    2.220   2242.39     0.0799     0.0024     0.0384     0.0222     0.0959     3.0070    35.5200     0.0604     0.2635
  113    2.240   2243.34     0.0777     0.0022     0.0392     0.0224     0.0942     2.7680    35.8400     0.0584     0.2893
  114    2.260   2244.35     0.0808     0.0023     0.0402     0.0226     0.0976     2.8768    36.1600     0.0615     0.2836
  115    2.280   2245.27     0.0801     0.0024     0.0402     0.0228     0.0969     2.9760    36.4800     0.0604     0.2855
  116    2.300   2246.25     0.0783     0.0025     0.0425     0.0230     0.0957     3.1608    36.8000     0.0589     0.3140
  117    2.320   2247.27     0.0773     0.0023     0.0445     0.0232     0.0957     3.0185    37.1200     0.0586     0.3527
  118    2.340   2248.24     0.0766     0.0026     0.0466     0.0234     0.0959     3.4367    37.4400     0.0585     0.3852
  119    2.360   2249.21     0.0789     0.0024     0.0488     0.0236     0.0992     3.1244    37.7600     0.0614     0.4004
  120    2.380   2250.21     0.0797     0.0025     0.0508     0.0238     0.1006     3.1514    38.0800     0.0626     0.4178
  121    2.400   2251.19     0.0824     0.0024     0.0531     0.0240     0.1044     2.8646    38.4000     0.0660     0.4300
  122    2.420   2252.18     0.0824     0.0025     0.0552     0.0242     0.1052     3.0279    38.7200     0.0665     0.4523
  123    2.440   2253.14     0.0822     0.0027     0.0568     0.0244     0.1059     3.1994    39.0400     0.0669     0.4792
  124    2.460   2254.11     0.0841     0.0026     0.0572     0.0246     0.1081     3.0575    39.3600     0.0687     0.4737
  125    2.480   2255.12     0.0837     0.0030     0.0570     0.0248     0.1079     3.5291    39.6800     0.0682     0.4800
  126    2.500   2256.09     0.0843     0.0026     0.0556     0.0250     0.1080     3.1635    40.0000     0.0680     0.4625
  127    2.520   2257.09     0.0875     0.0027     0.0582     0.0252     0.1114     3.1490    40.3200     0.0711     0.4463
  128    2.540   2258.09     0.0890     0.0026     0.0613     0.0254     0.1143     2.8705    40.6400     0.0736     0.4711
  129    2.560   2259.07     0.0889     0.0026     0.0637     0.0256     0.1155     2.9344    40.9600     0.0745     0.5047
  130    2.580   2260.06     0.0886     0.0024     0.0642     0.0258     0.1155     2.6691    41.2800     0.0742     0.5149
  131    2.600   2261.02     0.0918     0.0026     0.0599     0.0260     0.1181     2.8444    41.6000     0.0765     0.4805
  132    2.620   2262.00     0.0951     0.0030     0.0612     0.0262     0.1206     3.1956    41.9200     0.0786     0.4385
  133    2.640   2262.95     0.0982     0.0028     0.0604     0.0264     0.1240     2.8461    42.2400     0.0817     0.4274
  134    2.660   2263.95     0.0981     0.0029     0.0590     0.0266     0.1231     2.9509    42.5600     0.0806     0.4105
  135    2.680   2264.95     0.0959     0.0027     0.0591     0.0268     0.1207     2.8658    42.8800     0.0778     0.4129
  136    2.700   2265.90     0.0991     0.0029     0.0626     0.0270     0.1247     2.8811    43.2000     0.0815     0.4171
  137    2.720   2266.89     0.0962     0.0029     0.0655     0.0272     0.1234     2.9531    43.5200     0.0798     0.4696
  138    2.740   2267.84     0.1012     0.0027     0.0657     0.0274     0.1288     2.6968    43.8400     0.0849     0.4503
  139    2.760   2268.78     0.1030     0.0029     0.0633     0.0276     0.1304     2.7574    44.1600     0.0863     0.4361
  140    2.780   2269.81     0.0988     0.0027     0.0621     0.0278     0.1245     2.7216    44.4800     0.0801     0.4186
  141    2.800   2270.80     0.0988     0.0026     0.0641     0.0280     0.1256     2.6481    44.8000     0.0808     0.4417
  142    2.820   2271.77     0.0960     0.0029     0.0630     0.0282     0.1231     3.0087    45.1200     0.0780     0.4652
  143    2.840   2272.77     0.1011     0.0027     0.0607     0.0284     0.1266     2.6750    45.4400     0.0812     0.3990
  144    2.860   2273.73     0.0966     0.0026     0.0607     0.0286     0.1222     2.7097    45.7600     0.0764     0.4214
  145    2.880   2274.73     0.0945     0.0028     0.0628     0.0288     0.1204     2.9672    46.0800     0.0743     0.4430
  146    2.900   2275.72     0.0950     0.0028     0.0645     0.0290     0.1218     3.0116    46.4000     0.0754     0.4642
  147    2.920   2276.68     0.0926     0.0027     0.0665     0.0292     0.1202     2.9413    46.7200     0.0735     0.4970
  148    2.940   2277.66     0.0933     0.0030     0.0688     0.0294     0.1219     3.2804    47.0400     0.0749     0.5181
  149    2.960   2278.69     0.0958     0.0030     0.0713     0.0296     0.1254     3.0979    47.3600     0.0780     0.5234
  150    2.980   2279.66     0.0970     0.0031     0.0738     0.0298     0.1277     3.2427    47.6800     0.0800     0.5414
  151    3.000   2280.62     0.0980     0.0031     0.0736     0.0300     0.1291     3.1319    48.0000     0.0811     0.5414
  152    3.020   2281.61     0.0985     0.0029     0.0729     0.0302     0.1292     2.9736    48.3200     0.0809     0.5300
  153    3.040   2282.62     0.1033     0.0031     0.0741     0.0304     0.1342     3.0362    48.6400     0.0856     0.5064
  154    3.060   2283.62     0.1058     0.0033     0.0748     0.0306     0.1373     3.1614    48.9600     0.0883     0.5030
  155    3.080   2284.61     0.1131     0.0035     0.0729     0.0308     0.1444     3.0499    49.2800     0.0951     0.4601
  156    3.100   2285.58     0.1130     0.0035     0.0675     0.0310     0.1424     3.0898    49.6000     0.0928     0.4212
  157    3.120   2286.56     0.1147     0.0036     0.0641     0.0312     0.1424     3.1360    49.9200     0.0925     0.3746
  158    3.140   2287.56     0.1116     0.0035     0.0646     0.0314     0.1385     3.1569    50.2400     0.0883     0.3716
  159    3.160   2288.52     0.1110     0.0035     0.0675     0.0316     0.1388     3.1535    50.5600     0.0882     0.3912
  160    3.180   2289.48     0.1105     0.0038     0.0707     0.0318     0.1397     3.3861    50.8800     0.0888     0.4240
  161    3.200   2290.48     0.1098     0.0037     0.0729     0.0320     0.1403     3.3350    51.2000     0.0891     0.4540
  162    3.220   2291.48     0.1093     0.0032     0.0741     0.0322     0.1401     2.9004    51.5200     0.0886     0.4636
  163    3.240   2292.43     0.1126     0.0033     0.0763     0.0324     0.1444     2.9562    51.8400     0.0926     0.4666
  164    3.260   2293.43     0.1141     0.0037     0.0776     0.0326     0.1465     3.2750    52.1600     0.0943     0.4714
  165    3.280   2294.39     0.1072     0.0038     0.0775     0.0328     0.1399     3.4310    52.4800     0.0874     0.5174
  166    3.300   2295.39     0.1086     0.0036     0.0760     0.0330     0.1407     3.3369    52.8000     0.0879     0.4946
  167    3.320   2296.41     0.1130     0.0037     0.0734     0.0332     0.1443     3.2728    53.1200     0.0912     0.4535
  168    3.340   2297.35     0.1124     0.0040     0.0741     0.0334     0.1431     3.5905    53.4400     0.0897     0.4446
  169    3.360   2298.38     0.1124     0.0039     0.0765     0.0336     0.1440     3.4540    53.7600     0.0903     0.4636
  170    3.380   2299.32     0.1111     0.0039     0.0774     0.0338     0.1437     3.5331    54.0800     0.0896     0.4889
  171    3.400   2300.34     0.1134     0.0038     0.0773     0.0340     0.1459     3.3866    54.4000     0.0915     0.4752
  172    3.420   2301.33     0.1122     0.0039     0.0782     0.0342     0.1448     3.4674    54.7200     0.0901     0.4825
  173    3.440   2302.28     0.1138     0.0035     0.0807     0.0344     0.1473     3.0257    55.0400     0.0922     0.4918
  174    3.460   2303.26     0.1141     0.0036     0.0839     0.0346     0.1489     3.1562    55.3600     0.0935     0.5150
  175    3.480   2304.25     0.1184     0.0041     0.0834     0.0348     0.1538     3.4777    55.6800     0.0981     0.5038
  176    3.500   2305.27     0.1242     0.0040     0.0805     0.0350     0.1585     3.1670    56.0000     0.1025     0.4552
  177    3.520   2306.23     0.1257     0.0042     0.0777     0.0352     0.1588     3.2876    56.3200     0.1025     0.4249
  178    3.540   2307.24     0.1320     0.0039     0.0731     0.0354     0.1634     2.9801    56.6400     0.1067     0.3676
  179    3.560   2308.21     0.1303     0.0043     0.0690     0.0356     0.1598     3.2567    56.9600     0.1029     0.3364
  180    3.580   2309.19     0.1272     0.0044     0.0693     0.0358     0.1559     3.4374    57.2800     0.0987     0.3318
  181    3.600   2310.20     0.1280     0.0045     0.0723     0.0360     0.1579     3.5882    57.6000     0.1003     0.3505
  182    3.620   2311.15     0.1325     0.0043     0.0764     0.0362     0.1641     3.2496    57.9200     0.1062     0.3673
  183    3.640   2312.13     0.1297     0.0040     0.0774     0.0364     0.1622     3.0974    58.2400     0.1040     0.3946
  184    3.660   2313.12     0.1293     0.0040     0.0757     0.0366     0.1612     3.0808    58.5600     0.1027     0.3841
  185    3.680   2314.11     0.1278     0.0038     0.0754     0.0368     0.1591     2.9687    58.8800     0.1002     0.3757
  186    3.700   2315.09     0.1255     0.0040     0.0787     0.0370     0.1581     3.1875    59.2000     0.0989     0.4106
  187    3.720   2316.03     0.1277     0.0037     0.0818     0.0372     0.1618     2.9339    59.5200     0.1023     0.4297
  188    3.740   2317.01     0.1301     0.0040     0.0811     0.0374     0.1646     3.1107    59.8400     0.1048     0.4270
  189    3.760   2318.00     0.1323     0.0039     0.0767     0.0376     0.1645     2.9450    60.1600     0.1044     0.3746
  190    3.780   2318.99     0.1327     0.0041     0.0750     0.0378     0.1646     3.1058    60.4800     0.1041     0.3653
  191    3.800   2319.98     0.1386     0.0043     0.0737     0.0380     0.1698     3.1439    60.8000     0.1090     0.3341
  192    3.820   2320.93     0.1458     0.0046     0.0700     0.0382     0.1755     3.1974    61.1200     0.1144     0.2859
  193    3.840   2321.94     0.1499     0.0048     0.0669     0.0384     0.1783     3.2508    61.4400     0.1169     0.2499
  194    3.860   2322.91     0.1505     0.0050     0.0646     0.0386     0.1781     3.4045    61.7600     0.1163     0.2321
  195    3.880   2323.88     0.1451     0.0048     0.0622     0.0388     0.1715     3.2571    62.0800     0.1094     0.2188
  196    3.900   2332.09     0.1411     0.0047     0.0655     0.0390     0.1680     3.3217    62.4000     0.1056     0.2363
  197    3.920   2347.97     0.1410     0.0043     0.0699     0.0392     0.1697     3.0478    62.7200     0.1070     0.2715
  198    3.940   2363.84     0.1409     0.0042     0.0742     0.0394     0.1714     2.9428    63.0400     0.1084     0.3066
  199    3.960   2376.13     0.1402     0.0037     0.0791     0.0396     0.1727     2.6484    63.3600     0.1093     0.3447
  200    3.980   2377.13     0.1428     0.0038     0.0853     0.0398     0.1777     2.6654    63.6800     0.1141     0.3808
  201    4.000   2378.12     0.1486     0.0036     0.0879     0.0400     0.1851     2.3996    64.0000     0.1211     0.3875
  202    4.020   2379.12     0.1479     0.0035     0.0866     0.0402     0.1842     2.3732    64.3200     0.1199     0.3868
  203    4.040   2380.12     0.1477     0.0038     0.0865     0.0404     0.1844     2.5610    64.6400     0.1197     0.3907
  204    4.060   2381.11     0.1499     0.0040     0.0830     0.0406     0.1854     2.6598    64.9600     0.1204     0.3637
  205    4.080   2382.08     0.1568     0.0041     0.0814     0.0408     0.1913     2.6376    65.2800     0.1260     0.3271
  206    4.100   2383.07     0.1523     0.0041     0.0836     0.0410     0.1871     2.7119    65.6000     0.1215     0.3430
  207    4.120   2384.04     0.1568     0.0039     0.0866     0.0412     0.1928     2.4805    65.9200     0.1268     0.3503
  208    4.140   2385.01     0.1567     0.0038     0.0895     0.0414     0.1941     2.4472    66.2400     0.1279     0.3738
  209    4.160   2385.99     0.1591     0.0038     0.0919     0.0416     0.1971     2.4284    66.5600     0.1306     0.3757
  210    4.180   2387.01     0.1633     0.0040     0.0894     0.0418     0.2014     2.4765    66.8800     0.1346     0.3645
  211    4.200   2387.96     0.1627     0.0038     0.0890     0.0420     0.2003     2.3537    67.2000     0.1331     0.3581
  212    4.220   2388.95     0.1666     0.0043     0.0861     0.0422     0.2036     2.5891    67.5200     0.1361     0.3368
  213    4.240   2389.92     0.1619     0.0046     0.0859     0.0424     0.1978     2.7860    67.8400     0.1299     0.3303
  214    4.260   2390.89     0.1625     0.0046     0.0849     0.0426     0.1983     2.8189    68.1600     0.1301     0.3283
  215    4.280   2391.88     0.1646     0.0047     0.0850     0.0428     0.2007     2.8482    68.4800     0.1322     0.3253
  216    4.300   2392.86     0.1678     0.0045     0.0833     0.0430     0.2032     2.6839    68.8000     0.1344     0.3078
  217    4.320   2393.85     0.1610     0.0042     0.0831     0.0432     0.1957     2.5855    69.1200     0.1266     0.3114
  218    4.340   2394.84     0.1591     0.0041     0.0861     0.0434     0.1948     2.5670    69.4400     0.1253     0.3304
  219    4.360   2395.82     0.1565     0.0042     0.0897     0.0436     0.1936     2.7095    69.7600     0.1239     0.3618
  220    4.380   2396.78     0.1595     0.0040     0.0936     0.0438     0.1983     2.5032    70.0800     0.1282     0.3792
  221    4.400   2397.75     0.1619     0.0039     0.0900     0.0440     0.2008     2.4146    70.4000     0.1304     0.3732
  222    4.420   2398.75     0.1648     0.0039     0.0827     0.0442     0.2004     2.3483    70.7200     0.1296     0.3116
  223    4.440   2399.72     0.1626     0.0038     0.0806     0.0444     0.1967     2.3637    71.0400     0.1256     0.2920
  224    4.460   2400.71     0.1618     0.0044     0.0794     0.0446     0.1952     2.7136    71.3600     0.1238     0.2810
  225    4.480   2401.69     0.1578     0.0042     0.0823     0.0448     0.1920     2.6517    71.6800     0.1203     0.3027
  226    4.500   2402.72     0.1609     0.0042     0.0824     0.0450     0.1956     2.6209    72.0000     0.1236     0.3052
  227    4.520   2403.70     0.1626     0.0036     0.0822     0.0452     0.1972     2.1879    72.3200     0.1249     0.2973
  228    4.540   2404.67     0.1591     0.0042     0.0815     0.0454     0.1934     2.6088    72.6400     0.1208     0.3009
  229    4.560   2405.67     0.1562     0.0039     0.0805     0.0456     0.1902     2.4593    72.9600     0.1172     0.3002
  230    4.580   2406.65     0.1602     0.0042     0.0782     0.0458     0.1938     2.6648    73.2800     0.1205     0.2831
  231    4.600   2407.59     0.1671     0.0045     0.0763     0.0460     0.1991     2.6542    73.6000     0.1255     0.2410
  232    4.620   2408.60     0.1723     0.0047     0.0754     0.0462     0.2041     2.7702    73.9200     0.1301     0.2260
  233    4.640   2409.57     0.1740     0.0043     0.0715     0.0464     0.2053     2.4282    74.2400     0.1311     0.2145
  234    4.660   2410.58     0.1721     0.0045     0.0711     0.0466     0.2019     2.6064    74.5600     0.1274     0.1909
  235    4.680   2411.55     0.1687     0.0046     0.0731     0.0468     0.1990     2.7277    74.8800     0.1241     0.2039
  236    4.700   2412.54     0.1672     0.0048     0.0775     0.0470     0.1992     2.8724    75.2000     0.1240     0.2341
  237    4.720   2413.46     0.1688     0.0045     0.0820     0.0472     0.2024     2.6463    75.5200     0.1269     0.2596
  238    4.740   2414.44     0.1743     0.0047     0.0870     0.0474     0.2101     2.7431    75.8400     0.1343     0.2818
  239    4.760   2415.42     0.1765     0.0044     0.0922     0.0476     0.2145     2.5135    76.1600     0.1384     0.3106
  240    4.780   2416.42     0.1876     0.0043     0.0947     0.0478     0.2271     2.3256    76.4800     0.1507     0.3071
  241    4.800   2417.39     0.1923     0.0044     0.0903     0.0480     0.2321     2.3330    76.8000     0.1553     0.3001
  242    4.820   2418.37     0.1921     0.0047     0.0852     0.0482     0.2281     2.4628    77.1200     0.1510     0.2492
  243    4.840   2419.37     0.1948     0.0046     0.0848     0.0484     0.2306     2.3775    77.4400     0.1531     0.2404
  244    4.860   2420.31     0.1949     0.0047     0.0862     0.0486     0.2307     2.4102    77.7600     0.1529     0.2389
  245    4.880   2421.31     0.1890     0.0048     0.0905     0.0488     0.2265     2.5260    78.0800     0.1484     0.2728
  246    4.900   2422.28     0.1853     0.0048     0.0922     0.0490     0.2239     2.5752    78.4000     0.1455     0.2950
  247    4.920   2423.30     0.1828     0.0045     0.0952     0.0492     0.2222     2.4401    78.7200     0.1434     0.3111
  248    4.940   2424.25     0.1768     0.0048     0.1001     0.0494     0.2182     2.6968    79.0400     0.1391     0.3536
  249    4.960   2425.25     0.1733     0.0047     0.1024     0.0496     0.2159     2.6987    79.3600     0.1366     0.3806
  250    4.980   2426.26     0.1727     0.0044     0.1046     0.0498     0.2164     2.5667    79.6800     0.1367     0.3966
  251    5.000   2427.23     0.1731     0.0047     0.1069     0.0500     0.2176     2.6900    80.0000     0.1376     0.4069
  252    5.020   2428.23     0.1801     0.0045     0.1074     0.0502     0.2253     2.5443    80.3200     0.1450     0.3965
  253    5.040   2429.20     0.1753     0.0045     0.1071     0.0504     0.2201     2.5683    80.6400     0.1395     0.4033
  254    5.060   2430.20     0.1780     0.0048     0.1087     0.0506     0.2234     2.6753    80.9600     0.1424     0.4040
  255    5.080   2431.19     0.1793     0.0047     0.1078     0.0508     0.2249     2.6345    81.2800     0.1436     0.4017
  256    5.100   2432.18     0.1759     0.0050     0.1059     0.0510     0.2206     2.8020    81.6000     0.1390     0.3989
  257    5.120   2433.13     0.1733     0.0047     0.1052     0.0512     0.2175     2.7454    81.9200     0.1355     0.3973
  258    5.140   2434.12     0.1738     0.0045     0.1066     0.0514     0.2184     2.5840    82.2400     0.1362     0.4016
  259    5.160   2435.14     0.1703     0.0040     0.1087     0.0516     0.2157     2.3425    82.5600     0.1331     0.4244
  260    5.180   2436.08     0.1697     0.0039     0.1105     0.0518     0.2158     2.3271    82.8800     0.1329     0.4363
  261    5.200   2437.09     0.1715     0.0042     0.1126     0.0520     0.2186     2.4704    83.2000     0.1354     0.4438
  262    5.220   2438.04     0.1727     0.0040     0.1114     0.0522     0.2198     2.3329    83.5200     0.1363     0.4405
  263    5.240   2439.03     0.1684     0.0040     0.1112     0.0524     0.2150     2.3517    83.8400     0.1312     0.4474
  264    5.260   2440.01     0.1672     0.0041     0.1093     0.0526     0.2135     2.4538    84.1600     0.1293     0.4460
  265    5.280   2441.01     0.1670     0.0039     0.1060     0.0528     0.2119     2.3321    84.4800     0.1274     0.4249
  266    5.300   2441.96     0.1627     0.0041     0.1074     0.0530     0.2075     2.4581    84.8000     0.1227     0.4376
  267    5.320   2442.91     0.1669     0.0043     0.1108     0.0532     0.2128     2.6023    85.1200     0.1277     0.4397
  268    5.340   2443.76     0.1686     0.0042     0.1148     0.0534     0.2162     2.4862    85.4400     0.1308     0.4589
  269    5.360   2444.71     0.1709     0.0040     0.1185     0.0536     0.2202     2.3352    85.7600     0.1345     0.4749
  270    5.380   2445.70     0.1756     0.0038     0.1162     0.0538     0.2250     2.2046    86.0800     0.1389     0.4586
  271    5.400   2446.69     0.1731     0.0041     0.1147     0.0540     0.2214     2.3610    86.4000     0.1350     0.4516
  272    5.420   2447.69     0.1709     0.0040     0.1166     0.0542     0.2196     2.3191    86.7200     0.1328     0.4640
  273    5.440   2448.68     0.1737     0.0044     0.1179     0.0544     0.2231     2.5211    87.0400     0.1361     0.4646
  274    5.460   2449.66     0.1721     0.0044     0.1189     0.0546     0.2219     2.5655    87.3600     0.1345     0.4755
  275    5.480   2450.67     0.1710     0.0043     0.1165     0.0548     0.2202     2.5448    87.6800     0.1325     0.4713
  276    5.500   2451.66     0.1700     0.0042     0.1171     0.0550     0.2192     2.4267    88.0000     0.1312     0.4728
  277    5.520   2452.62     0.1713     0.0041     0.1176     0.0552     0.2205     2.4029    88.3200     0.1322     0.4676
  278    5.540   2453.62     0.1687     0.0040     0.1196     0.0554     0.2187     2.3284    88.6400     0.1300     0.4887
  279    5.560   2454.61     0.1629     0.0041     0.1206     0.0556     0.2135     2.5306    88.9600     0.1245     0.5214
  280    5.580   2455.52     0.1615     0.0036     0.1191     0.0558     0.2116     2.2546    89.2800     0.1224     0.5195
  281    5.600   2456.32     0.1628     0.0038     0.1189     0.0560     0.2128     2.3570    89.6000     0.1232     0.5115
  282    5.620   2457.15     0.1605     0.0041     0.1192     0.0562     0.2104     2.5458    89.9200     0.1205     0.5200
  283    5.640   2458.01     0.1618     0.0039     0.1213     0.0564     0.2124     2.4405    90.2400     0.1221     0.5243
  284    5.660   2458.99     0.1597     0.0036     0.1242     0.0566     0.2115     2.2655    90.5600     0.1210     0.5519
  285    5.680   2460.00     0.1622     0.0035     0.1228     0.0568     0.2145     2.1332    90.8800     0.1236     0.5479
  286    5.700   2460.96     0.1628     0.0035     0.1201     0.0570     0.2134     2.1542    91.2000     0.1222     0.5185
  287    5.720   2461.90     0.1624     0.0036     0.1207     0.0572     0.2129     2.1832    91.5200     0.1214     0.5195
  288    5.740   2462.87     0.1636     0.0040     0.1187     0.0574     0.2140     2.4714    91.8400     0.1222     0.5129
  289    5.760   2463.86     0.1665     0.0042     0.1156     0.0576     0.2154     2.5457    92.1600     0.1233     0.4771
  290    5.780   2464.86     0.1649     0.0043     0.1155     0.0578     0.2133     2.6200    92.4800     0.1208     0.4761
  291    5.800   2465.81     0.1661     0.0043     0.1165     0.0580     0.2147     2.6069    92.8000     0.1219     0.4748
  292    5.820   2466.83     0.1638     0.0048     0.1188     0.0582     0.2133     2.8999    93.1200     0.1202     0.4954
  293    5.840   2467.81     0.1654     0.0042     0.1209     0.0584     0.2162     2.5347    93.4400     0.1227     0.5085
  294    5.860   2482.14     0.1735     0.0040     0.1203     0.0586     0.2241     2.4521    93.7600     0.1304     0.4795
  295    5.880   2497.88     0.1832     0.0041     0.1198     0.0588     0.2336     2.4989    94.0800     0.1395     0.4427
  296    5.900   2512.01     0.1920     0.0046     0.1184     0.0590     0.2421     2.4549    94.4000     0.1477     0.4079
  297    5.920   2513.00     0.1954     0.0046     0.1132     0.0592     0.2438     2.3744    94.7200     0.1490     0.3747
  298    5.940   2513.97     0.2010     0.0050     0.1128     0.0594     0.2484     2.5134    95.0400     0.1534     0.3485
  299    5.960   2514.95     0.2004     0.0050     0.1163     0.0596     0.2488     2.4962    95.3600     0.1534     0.3620
  300    5.980   2515.95     0.2002     0.0050     0.1185     0.0598     0.2493     2.4839    95.6800     0.1537     0.3720
  301    6.000   2516.93     0.1937     0.0048     0.1207     0.0600     0.2439     2.4434    96.0000     0.1479     0.4037
  302    6.020   2517.95     0.1912     0.0044     0.1226     0.0602     0.2423     2.2710    96.3200     0.1460     0.4206
  303    6.040   2518.93     0.1875     0.0048     0.1256     0.0604     0.2398     2.5187    96.6400     0.1431     0.4477
  304    6.060   2519.88     0.1893     0.0046     0.1290     0.0606     0.2428     2.4367    96.9600     0.1459     0.4578
  305    6.080   2520.88     0.1932     0.0044     0.1326     0.0608     0.2484     2.2968    97.2800     0.1511     0.4675
  306    6.100   2521.84     0.1920     0.0046     0.1336     0.0610     0.2483     2.3878    97.6000     0.1507     0.4842
  307    6.120   2522.80     0.1931     0.0047     0.1344     0.0612     0.2493     2.4295    97.9200     0.1514     0.4795
  308    6.140   2523.82     0.1937     0.0047     0.1360     0.0614     0.2506     2.3931    98.2400     0.1524     0.4872
  309    6.160   2524.78     0.1915     0.0047     0.1343     0.0616     0.2482     2.4641    98.5600     0.1497     0.4902
  310    6.180   2525.79     0.1913     0.0047     0.1341     0.0618     0.2474     2.4673    98.8800     0.1486     0.4841
  311    6.200   2526.72     0.1919     0.0047     0.1353     0.0620     0.2486     2.4213    99.2000     0.1494     0.4895
  312    6.220   2527.69     0.1898     0.0044     0.1360     0.0622     0.2467     2.3271    99.5200     0.1472     0.4989
  313    6.240   2528.66     0.1922     0.0047     0.1382     0.0624     0.2499     2.4390    99.8400     0.1500     0.4992
  314    6.260   2529.65     0.1967     0.0047     0.1395     0.0626     0.2551     2.3847   100.1600     0.1550     0.4933
  315    6.280   2530.62     0.1962     0.0046     0.1398     0.0628     0.2550     2.3454   100.4800     0.1545     0.4991
  316    6.300   2531.58     0.1967     0.0047     0.1381     0.0630     0.2547     2.4014   100.8000     0.1539     0.4882
  317    6.320   2532.57     0.2050     0.0046     0.1384     0.0632     0.2632     2.2441   101.1200     0.1621     0.4643
  318    6.340   2533.57     0.2059     0.0048     0.1364     0.0634     0.2636     2.3427   101.4400     0.1621     0.4555
  319    6.360   2534.52     0.2094     0.0048     0.1360     0.0636     0.2665     2.2863   101.7600     0.1647     0.4394
  320    6.380   2535.52     0.2065     0.0049     0.1351     0.0638     0.2633     2.3575   102.0800     0.1612     0.4439
  321    6.400   2536.46     0.2059     0.0052     0.1356     0.0640     0.2627     2.4902   102.4000     0.1603     0.4455
  322    6.420   2537.46     0.2101     0.0055     0.1356     0.0642     0.2673     2.6226   102.7200     0.1645     0.4371
  323    6.440   2538.49     0.2112     0.0058     0.1337     0.0644     0.2675     2.7550   103.0400     0.1645     0.4245
  324    6.460   2539.49     0.2136     0.0056     0.1339     0.0646     0.2702     2.6382   103.3600     0.1668     0.4201
  325    6.480   2540.42     0.2148     0.0056     0.1283     0.0648     0.2695     2.6072   103.6800     0.1658     0.3937
  326    6.500   2551.60     0.2161     0.0053     0.1269     0.0650     0.2696     2.4446   104.0000     0.1656     0.3759
  327    6.520   2570.69     0.2164     0.0053     0.1258     0.0652     0.2694     2.4595   104.3200     0.1651     0.3691
  328    6.540   2589.78     0.2168     0.0051     0.1247     0.0654     0.2693     2.3716   104.6400     0.1646     0.3622
  329    6.560   2601.18     0.2146     0.0050     0.1246     0.0656     0.2669     2.3024   104.9600     0.1619     0.3640
  330    6.580   2601.82     0.2085     0.0047     0.1255     0.0658     0.2611     2.2654   105.2800     0.1558     0.3810
  331    6.600   2602.45     0.2059     0.0050     0.1271     0.0660     0.2589     2.4084   105.6000     0.1533     0.3929
  332    6.620   2603.08     0.2039     0.0050     0.1288     0.0662     0.2578     2.4268   105.9200     0.1519     0.4094
  333    6.640   2603.68     0.2032     0.0048     0.1319     0.0664     0.2581     2.3555   106.2400     0.1518     0.4236
  334    6.660   2604.32     0.2080     0.0046     0.1321     0.0666     0.2633     2.2065   106.5600     0.1567     0.4143
  335    6.680   2604.98     0.2078     0.0049     0.1332     0.0668     0.2639     2.3371   106.8800     0.1570     0.4259
  336    6.700   2605.58     0.2063     0.0047     0.1332     0.0670     0.2621     2.3042   107.2000     0.1549     0.4253
  337    6.720   2606.23     0.2092     0.0048     0.1347     0.0672     0.2655     2.3191   107.5200     0.1580     0.4238
  338    6.740   2606.86     0.2086     0.0049     0.1367     0.0674     0.2656     2.3340   107.8400     0.1578     0.4336
  339    6.760   2607.52     0.2082     0.0050     0.1392     0.0676     0.2664     2.4124   108.1600     0.1582     0.4481
  340    6.780   2608.13     0.2085     0.0051     0.1409     0.0678     0.2674     2.4461   108.4800     0.1589     0.4562
  341    6.800   2608.79     0.2103     0.0048     0.1425     0.0680     0.2701     2.2791   108.8000     0.1613     0.4607
  342    6.820   2633.85     0.2095     0.0050     0.1403     0.0682     0.2687     2.3879   109.1200     0.1596     0.4563
  343    6.840   2665.46     0.2074     0.0049     0.1381     0.0684     0.2657     2.3371   109.4400     0.1563     0.4505
  344    6.860   2689.68     0.2059     0.0050     0.1397     0.0686     0.2641     2.4389   109.7600     0.1544     0.4529
  345    6.880   2690.70     0.2059     0.0051     0.1413     0.0688     0.2649     2.4612   110.0800     0.1549     0.4632
  346    6.900   2691.68     0.2087     0.0048     0.1439     0.0690     0.2687     2.2821   110.4000     0.1583     0.4676
  347    6.920   2692.70     0.2061     0.0048     0.1464     0.0692     0.2672     2.3318   110.7200     0.1565     0.4880
  348    6.940   2693.67     0.2057     0.0048     0.1497     0.0694     0.2680     2.3297   111.0400     0.1569     0.5028
  349    6.960   2694.70     0.2064     0.0047     0.1536     0.0696     0.2703     2.3016   111.3600     0.1590     0.5198
  350    6.980   2695.72     0.2065     0.0049     0.1585     0.0698     0.2723     2.3884   111.6800     0.1606     0.5418
  351    7.000   2696.70     0.2113     0.0047     0.1634     0.0700     0.2792     2.2406   112.0000     0.1672     0.5489
  352    7.020   2697.71     0.2191     0.0049     0.1652     0.0702     0.2884     2.2405   112.3200     0.1761     0.5389
  353    7.040   2698.68     0.2184     0.0046     0.1664     0.0704     0.2880     2.1246   112.6400     0.1754     0.5435
  354    7.060   2699.67     0.2195     0.0050     0.1651     0.0706     0.2892     2.2863   112.9600     0.1762     0.5408
  355    7.080   2700.67     0.2216     0.0050     0.1640     0.0708     0.2906     2.2741   113.2800     0.1773     0.5272
  356    7.100   2701.67     0.2243     0.0051     0.1663     0.0710     0.2939     2.2500   113.6000     0.1803     0.5244
  357    7.120   2702.68     0.2271     0.0048     0.1634     0.0712     0.2966     2.1356   113.9200     0.1826     0.5154
  358    7.140   2703.64     0.2274     0.0050     0.1577     0.0714     0.2950     2.2205   114.2400     0.1807     0.4949
  359    7.160   2704.63     0.2291     0.0050     0.1533     0.0716     0.2934     2.1631   114.5600     0.1788     0.4555
  360    7.180   2705.60     0.2225     0.0051     0.1545     0.0718     0.2870     2.2787   114.8800     0.1722     0.4762
  361    7.200   2706.63     0.2252     0.0050     0.1587     0.0720     0.2913     2.2153   115.2000     0.1761     0.4846
  362    7.220   2707.59     0.2254     0.0051     0.1628     0.0722     0.2932     2.2626   115.5200     0.1777     0.5020
  363    7.240   2708.58     0.2249     0.0051     0.1639     0.0724     0.2938     2.2538   115.8400     0.1779     0.5150
  364    7.260   2709.57     0.2282     0.0051     0.1652     0.0726     0.2974     2.2622   116.1600     0.1812     0.5086
  365    7.280   2710.52     0.2322     0.0056     0.1654     0.0728     0.3019     2.4053   116.4800     0.1855     0.5029
  366    7.300   2711.52     0.2374     0.0056     0.1677     0.0730     0.3076     2.3418   116.8000     0.1908     0.4931
  367    7.320   2712.49     0.2433     0.0057     0.1720     0.0732     0.3147     2.3556   117.1200     0.1976     0.4896
  368    7.340   2713.54     0.2403     0.0055     0.1736     0.0734     0.3134     2.3116   117.4400     0.1959     0.5131
  369    7.360   2714.53     0.2469     0.0054     0.1770     0.0736     0.3206     2.1926   117.7600     0.2029     0.5022
  370    7.380   2715.49     0.2470     0.0055     0.1726     0.0738     0.3205     2.2192   118.0800     0.2024     0.5002
  371    7.400   2716.50     0.2479     0.0055     0.1697     0.0740     0.3191     2.2354   118.4000     0.2007     0.4758
  372    7.420   2717.50     0.2494     0.0059     0.1684     0.0742     0.3206     2.3579   118.7200     0.2019     0.4717
  373    7.440   2718.48     0.2456     0.0054     0.1717     0.0744     0.3171     2.1814   119.0400     0.1980     0.4834
  374    7.460   2719.50     0.2491     0.0054     0.1736     0.0746     0.3215     2.1733   119.3600     0.2022     0.4838
  375    7.480   2720.49     0.2527     0.0054     0.1786     0.0748     0.3271     2.1307   119.6800     0.2074     0.4939
  376    7.500   2721.50     0.2574     0.0060     0.1782     0.0750     0.3324     2.3275   120.0000     0.2124     0.4875
  377    7.520   2722.48     0.2584     0.0063     0.1740     0.0752     0.3323     2.4284   120.3200     0.2119     0.4747
  378    7.540   2723.49     0.2592     0.0060     0.1654     0.0754     0.3287     2.3152   120.6400     0.2081     0.4335
  379    7.560   2724.49     0.2585     0.0063     0.1666     0.0756     0.3280     2.4264   120.9600     0.2071     0.4347
  380    7.580   2725.48     0.2600     0.0064     0.1700     0.0758     0.3310     2.4452   121.2800     0.2097     0.4449
  381    7.600   2726.51     0.2562     0.0062     0.1739     0.0760     0.3288     2.4094   121.6000     0.2072     0.4674
  382    7.620   2727.50     0.2529     0.0057     0.1781     0.0762     0.3268     2.2629   121.9200     0.2049     0.4875
  383    7.640   2728.50     0.2533     0.0055     0.1808     0.0764     0.3290     2.1995   122.2400     0.2068     0.5022
  384    7.660   2729.44     0.2552     0.0054     0.1858     0.0766     0.3326     2.1018   122.5600     0.2101     0.5132
  385    7.680   2730.47     0.2607     0.0056     0.1898     0.0768     0.3401     2.1461   122.8800     0.2172     0.5170
  386    7.700   2731.43     0.2595     0.0053     0.1890     0.0770     0.3397     2.0460   123.2000     0.2165     0.5268
  387    7.720   2732.41     0.2631     0.0052     0.1828     0.0772     0.3409     1.9642   123.5200     0.2174     0.4971
  388    7.740   2733.43     0.2652     0.0053     0.1757     0.0774     0.3395     2.0100   123.8400     0.2156     0.4616
  389    7.760   2734.38     0.2630     0.0059     0.1719     0.0776     0.3353     2.2336   124.1600     0.2112     0.4479
  390    7.780   2735.37     0.2635     0.0062     0.1698     0.0778     0.3354     2.3686   124.4800     0.2110     0.4436
  391    7.800   2736.36     0.2611     0.0059     0.1663     0.0780     0.3312     2.2718   124.8000     0.2064     0.4308
  392    7.820   2737.34     0.2601     0.0055     0.1679     0.0782     0.3302     2.1157   125.1200     0.2051     0.4326
  393    7.840   2738.34     0.2606     0.0056     0.1702     0.0784     0.3320     2.1613   125.4400     0.2065     0.4435
  394    7.860   2739.34     0.2552     0.0057     0.1730     0.0786     0.3272     2.2195   125.7600     0.2015     0.4608
  395    7.880   2740.34     0.2546     0.0055     0.1773     0.0788     0.3287     2.1414   126.0800     0.2026     0.4819
  396    7.900   2741.34     0.2556     0.0055     0.1722     0.0790     0.3296     2.1403   126.4000     0.2032     0.4785
  397    7.920   2742.33     0.2572     0.0054     0.1630     0.0792     0.3264     2.0925   126.7200     0.1997     0.4286
  398    7.940   2743.29     0.2514     0.0057     0.1642     0.0794     0.3200     2.2774   127.0400     0.1929     0.4345
  399    7.960   2744.31     0.2458     0.0057     0.1678     0.0796     0.3156     2.2875   127.3600     0.1883     0.4606
  400    7.980   2745.33     0.2423     0.0056     0.1710     0.0798     0.3139     2.2976   127.6800     0.1863     0.4867
  401    8.000   2746.35     0.2324     0.0058     0.1728     0.0800     0.3046     2.4620   128.0000     0.1766     0.5203
  402    8.020   2747.33     0.2371     0.0056     0.1748     0.0802     0.3103     2.3645   128.3200     0.1819     0.5168
  403    8.040   2748.34     0.2311     0.0055     0.1761     0.0804     0.3049     2.3341   128.6400     0.1763     0.5406
  404    8.060   2761.36     0.2283     0.0054     0.1775     0.0806     0.3026     2.3617   128.9600     0.1737     0.5554
  405    8.080   2775.69     0.2260     0.0054     0.1788     0.0808     0.3009     2.3387   129.2800     0.1716     0.5687
  406    8.100   2789.91     0.2237     0.0054     0.1799     0.0810     0.2991     2.3934   129.6000     0.1695     0.5821
  407    8.120   2790.95     0.2204     0.0052     0.1809     0.0812     0.2964     2.3736   129.9200     0.1665     0.5991
  408    8.140   2791.92     0.2175     0.0053     0.1828     0.0814     0.2940     2.4243   130.2400     0.1637     0.6147
  409    8.160   2792.92     0.2179     0.0053     0.1839     0.0816     0.2955     2.4278   130.5600     0.1649     0.6255
  410    8.180   2793.89     0.2152     0.0053     0.1853     0.0818     0.2928     2.4456   130.8800     0.1619     0.6349
  411    8.200   2794.90     0.2104     0.0049     0.1887     0.0820     0.2892     2.3178   131.2000     0.1580     0.6691
  412    8.220   2795.86     0.2118     0.0054     0.1913     0.0822     0.2916     2.5592   131.5200     0.1601     0.6738
  413    8.240   2796.86     0.2149     0.0053     0.1948     0.0824     0.2964     2.4735   131.8400     0.1646     0.6786
  414    8.260   2797.83     0.2186     0.0052     0.1979     0.0826     0.3011     2.3894   132.1600     0.1689     0.6733
  415    8.280   2798.83     0.2194     0.0050     0.2025     0.0828     0.3037     2.2584   132.4800     0.1712     0.6884
  416    8.300   2799.83     0.2320     0.0047     0.2085     0.0830     0.3190     2.0625   132.8000     0.1862     0.6666
  417    8.320   2800.77     0.2452     0.0044     0.2113     0.0832     0.3337     1.8170   133.1200     0.2006     0.6355
  418    8.340   2801.78     0.2679     0.0050     0.2067     0.0834     0.3558     1.9129   133.4400     0.2223     0.5669
  419    8.360   2802.77     0.2830     0.0052     0.1945     0.0836     0.3670     1.8462   133.7600     0.2333     0.4988
  420    8.380   2803.71     0.2859     0.0057     0.1779     0.0838     0.3626     1.9980   134.0800     0.2286     0.4330
  421    8.400   2804.72     0.2852     0.0056     0.1655     0.0840     0.3566     1.9557   134.4000     0.2222     0.3871
  422    8.420   2805.70     0.2769     0.0061     0.1475     0.0842     0.3412     2.1720   134.7200     0.2065     0.3335
  423    8.440   2806.70     0.2634     0.0059     0.1503     0.0844     0.3257     2.2212   135.0400     0.1907     0.3364
  424    8.460   2807.68     0.2563     0.0059     0.1557     0.0846     0.3209     2.3017   135.3600     0.1855     0.3725
  425    8.480   2808.67     0.2507     0.0054     0.1613     0.0848     0.3177     2.1630   135.6800     0.1820     0.4108
  426    8.500   2809.68     0.2504     0.0050     0.1668     0.0850     0.3197     2.0020   136.0000     0.1837     0.4358
  427    8.520   2810.69     0.2504     0.0051     0.1716     0.0852     0.3216     2.0394   136.3200     0.1853     0.4556
  428    8.540   2811.69     0.2521     0.0052     0.1763     0.0854     0.3255     2.0856   136.6400     0.1889     0.4732
  429    8.560   2812.67     0.2541     0.0054     0.1791     0.0856     0.3290     2.1061   136.9600     0.1921     0.4834
  430    8.580   2813.65     0.2532     0.0057     0.1825     0.0858     0.3293     2.2318   137.2800     0.1920     0.4962
  431    8.600   2814.64     0.2570     0.0059     0.1875     0.0860     0.3350     2.3141   137.6000     0.1974     0.5050
  432    8.620   2815.59     0.2601     0.0059     0.1923     0.0862     0.3401     2.2740   137.9200     0.2022     0.5157
  433    8.640   2816.63     0.2643     0.0058     0.1909     0.0864     0.3452     2.1953   138.2400     0.2070     0.5132
  434    8.660   2817.61     0.2630     0.0055     0.1895     0.0866     0.3426     2.0975   138.5600     0.2041     0.5051
  435    8.680   2818.62     0.2584     0.0061     0.1910     0.0868     0.3383     2.3568   138.8800     0.1994     0.5189
  436    8.700   2819.57     0.2621     0.0060     0.1943     0.0870     0.3432     2.2776   139.2000     0.2040     0.5196
  437    8.720   2820.55     0.2611     0.0061     0.1974     0.0872     0.3436     2.3288   139.5200     0.2041     0.5353
  438    8.740   2821.56     0.2619     0.0058     0.1965     0.0874     0.3449     2.2148   139.8400     0.2050     0.5375
  439    8.760   2822.51     0.2664     0.0060     0.1943     0.0876     0.3482     2.2609   140.1600     0.2081     0.5155
  440    8.780   2823.53     0.2673     0.0060     0.1945     0.0878     0.3485     2.2436   140.4800     0.2080     0.5076
  441    8.800   2824.46     0.2663     0.0060     0.1923     0.0880     0.3478     2.2365   140.8000     0.2070     0.5121
  442    8.820   2825.47     0.2617     0.0058     0.1928     0.0882     0.3422     2.2266   141.1200     0.2011     0.5155
  443    8.840   2826.47     0.2576     0.0061     0.1961     0.0884     0.3395     2.3904   141.4400     0.1981     0.5382
  444    8.860   2827.48     0.2613     0.0059     0.2002     0.0886     0.3453     2.2571   141.7600     0.2035     0.5469
  445    8.880   2828.44     0.2631     0.0059     0.1982     0.0888     0.3461     2.2484   142.0800     0.2040     0.5330
  446    8.900   2829.42     0.2677     0.0056     0.1975     0.0890     0.3519     2.0869   142.4000     0.2095     0.5317
  447    8.920   2830.40     0.2687     0.0058     0.1967     0.0892     0.3505     2.1542   142.7200     0.2078     0.5087
  448    8.940   2831.38     0.2796     0.0057     0.2037     0.0894     0.3647     2.0351   143.0400     0.2217     0.5105
  449    8.960   2832.43     0.2685     0.0058     0.2063     0.0896     0.3542     2.1399   143.3600     0.2108     0.5425
  450    8.980   2833.40     0.2738     0.0054     0.2076     0.0898     0.3607     1.9570   143.6800     0.2170     0.5397
  451    9.000   2834.38     0.2779     0.0049     0.2069     0.0900     0.3649     1.7742   144.0000     0.2209     0.5305
  452    9.020   2835.39     0.2816     0.0054     0.2097     0.0902     0.3691     1.9309   144.3200     0.2248     0.5260
  453    9.040   2836.41     0.2815     0.0049     0.2088     0.0904     0.3691     1.7530   144.6400     0.2244     0.5264
  454    9.060   2837.34     0.2751     0.0051     0.2124     0.0906     0.3641     1.8681   144.9600     0.2191     0.5527
  455    9.080   2838.36     0.2848     0.0050     0.2074     0.0908     0.3724     1.7515   145.2800     0.2271     0.5187
  456    9.100   2839.35     0.3020     0.0051     0.2015     0.0910     0.3872     1.7228   145.6000     0.2416     0.4635
  457    9.120   2840.36     0.3015     0.0053     0.1956     0.0912     0.3846     1.7760   145.9200     0.2387     0.4466
  458    9.140   2841.35     0.2931     0.0053     0.1862     0.0914     0.3729     1.8077   146.2400     0.2266     0.4344
  459    9.160   2842.37     0.2800     0.0055     0.1833     0.0916     0.3568     1.9231   146.5600     0.2102     0.4346
  460    9.180   2843.30     0.3128     0.0054     0.2042     0.0918     0.3970     1.8228   146.8800     0.2501     0.4347
  461    9.200   2844.28     0.3074     0.0050     0.1988     0.0920     0.3918     1.6281   147.2000     0.2446     0.4453
  462    9.220   2845.28     0.3013     0.0052     0.2008     0.0922     0.3846     1.7053   147.5200     0.2371     0.4482
  463    9.240   2846.25     0.3133     0.0058     0.2078     0.0924     0.4002     1.8847   147.8400     0.2524     0.4540
  464    9.260   2847.26     0.3034     0.0056     0.2051     0.0926     0.3894     1.8182   148.1600     0.2412     0.4652
  465    9.280   2848.24     0.2959     0.0047     0.2087     0.0928     0.3837     1.5787   148.4800     0.2352     0.4938
  466    9.300   2849.22     0.2975     0.0042     0.2069     0.0930     0.3838     1.4234   148.8000     0.2350     0.4788
  467    9.320   2850.22     0.3144     0.0044     0.2224     0.0932     0.4057     1.4331   149.1200     0.2565     0.4834
  468    9.340   2851.22     0.3786     0.0045     0.2525     0.0934     0.4812     1.2832   149.4400     0.3318     0.4563
  469    9.360   2852.17     0.4443     0.0035     0.2260     0.0936     0.5438     0.7912   149.7600     0.3941     0.3642
  470    9.380   2853.13     0.4555     0.0041     0.1970     0.0938     0.5419     0.8910   150.0800     0.3919     0.2857
  471    9.400   2854.16     0.4131     0.0050     0.1982     0.0940     0.4952     1.2040   150.4000     0.3448     0.2945
  472    9.420   2855.14     0.4634     0.0053     0.2098     0.0942     0.5501     1.1888   150.7200     0.3993     0.2814
  473    9.440   2856.13     0.5898     0.0054     0.2116     0.0944     0.6798     0.9380   151.0400     0.5288     0.2278
  474    9.460   2857.13     0.6927     0.0051     0.1724     0.0946     0.7704     0.7467   151.3600     0.6191     0.1464
  475    9.480   2858.10     0.6577     0.0049     0.1664     0.0948     0.7268     0.7358   151.6800     0.5751     0.1215
  476    9.500   2859.09     0.5776     0.0046     0.1727     0.0950     0.6495     0.7883   152.0000     0.4975     0.1537
  477    9.520   2860.09     0.5210     0.0049     0.1824     0.0952     0.5958     0.9249   152.3200     0.4435     0.1873
  478    9.540   2861.07     0.4894     0.0047     0.1888     0.0954     0.5678     0.9539   152.6400     0.4151     0.2199
  479    9.560   2862.08     0.5270     0.0050     0.1927     0.0956     0.6075     0.9803   152.9600     0.4545     0.2114
  480    9.580   2863.08     0.5848     0.0044     0.1920     0.0958     0.6659     0.7489   153.2800     0.5126     0.1897
  481    9.600   2864.05     0.5817     0.0045     0.1873     0.0960     0.6603     0.7692   153.6000     0.5067     0.1798
  482    9.620   2865.05     0.5784     0.0052     0.1895     0.0962     0.6571     0.8919   153.9200     0.5032     0.1813
  483    9.640   2866.05     0.5558     0.0050     0.1881     0.0964     0.6354     0.9082   154.2400     0.4812     0.1939
  484    9.660   2867.02     0.5883     0.0054     0.1885     0.0966     0.6678     0.9087   154.5600     0.5133     0.1807
  485    9.680   2868.07     0.5813     0.0056     0.1849     0.0968     0.6594     0.9700   154.8800     0.5046     0.1771
  486    9.700   2869.01     0.6167     0.0053     0.1848     0.0970     0.6947     0.8616   155.2000     0.5395     0.1648
  487    9.720   2870.00     0.6495     0.0049     0.1819     0.0972     0.7253     0.7607   155.5200     0.5698     0.1463
  488    9.740   2870.98     0.6178     0.0052     0.1883     0.0974     0.6953     0.8308   155.8400     0.5395     0.1618
  489    9.760   2871.96     0.5407     0.0048     0.1947     0.0976     0.6216     0.8627   156.1600     0.4654     0.2045
  490    9.780   2872.98     0.4839     0.0050     0.2012     0.0978     0.5672     0.9841   156.4800     0.4108     0.2452
  491    9.800   2873.94     0.4514     0.0051     0.2082     0.0980     0.5381     1.1054   156.8000     0.3813     0.2842
  492    9.820   2874.99     0.4179     0.0051     0.2103     0.0982     0.5063     1.2148   157.1200     0.3492     0.3221
  493    9.840   2875.98     0.3907     0.0049     0.2123     0.0984     0.4796     1.2129   157.4400     0.3221     0.3512
  494    9.860   2876.92     0.3857     0.0058     0.2117     0.0986     0.4760     1.5111   157.7600     0.3182     0.3656
  495    9.880   2894.75     0.4441     0.0060     0.2016     0.0988     0.5302     1.5618   158.0800     0.3721     0.3006
  496    9.900   2912.83     0.5032     0.0060     0.1916     0.0990     0.5851     1.5580   158.4000     0.4267     0.2345
  497    9.920   2923.35     0.5250     0.0053     0.1883     0.0992     0.6054     1.0110   158.7200     0.4467     0.2065
  498    9.940   2924.33     0.5064     0.0061     0.1688     0.0994     0.5807     1.2016   159.0400     0.4216     0.1834
  499    9.960   2925.38     0.4600     0.0063     0.1696     0.0996     0.5297     1.3524   159.3600     0.3704     0.1798
  500    9.980   2926.36     0.4294     0.0061     0.1763     0.0998     0.5025     1.4180   159.6800     0.3428     0.2166
  501   10.000   2927.38     0.4466     0.0064     0.1845     0.1000     0.5229     1.4441   160.0000     0.3629     0.2252
  502   10.020   2928.35     0.4613     0.0066     0.1917     0.1002     0.5405     1.4419   160.3200     0.3802     0.2327
  503   10.040   2929.34     0.4791     0.0066     0.1997     0.1004     0.5622     1.3800   160.6400     0.4016     0.2428
  504   10.060   2930.34     0.4725     0.0066     0.2072     0.1006     0.5581     1.4022   160.9600     0.3972     0.2599
  505   10.080   2931.32     0.4670     0.0066     0.2197     0.1008     0.5574     1.4165   161.2800     0.3961     0.2888
  506   10.100   2932.30     0.4892     0.0068     0.2294     0.1010     0.5844     1.4014   161.6000     0.4228     0.2974
  507   10.120   2933.32     0.4939     0.0071     0.2404     0.1012     0.5929     1.4369   161.9200     0.4310     0.3119
  508   10.140   2934.31     0.5016     0.0076     0.2526     0.1014     0.6061     1.5088   162.2400     0.4439     0.3321
  509   10.160   2935.30     0.4994     0.0076     0.2631     0.1016     0.6084     1.5256   162.5600     0.4458     0.3542
  510   10.180   2936.28     0.5006     0.0071     0.2725     0.1018     0.6141     1.4215   162.8800     0.4512     0.3731
  511   10.200   2937.24     0.4917     0.0069     0.2739     0.1020     0.6070     1.3864   163.2000     0.4438     0.3887
  512   10.220   2938.22     0.5031     0.0091     0.2673     0.1022     0.6165     1.8279   163.5200     0.4529     0.3702
  513   10.240   2939.21     0.5474     0.0095     0.2667     0.1024     0.6592     1.7763   163.8400     0.4954     0.3310
  514   10.260   2940.22     0.5837     0.0099     0.2637     0.1026     0.6948     1.7033   164.1600     0.5306     0.3049
  515   10.280   2941.19     0.6098     0.0097     0.2495     0.1028     0.7174     1.5932   164.4800     0.5529     0.2773
  516   10.300   2942.15     0.5973     0.0089     0.2470     0.1030     0.7012     1.4847   164.8000     0.5364     0.2690
  517   10.320   2943.13     0.5583     0.0091     0.2527     0.1032     0.6637     1.6067   165.1200     0.4986     0.2968
  518   10.340   2944.13     0.5153     0.0091     0.2627     0.1034     0.6243     1.7666   165.4400     0.4588     0.3400
  519   10.360   2945.14     0.4980     0.0082     0.2700     0.1036     0.6103     1.6295   165.7600     0.4446     0.3686
  520   10.380   2946.14     0.4946     0.0076     0.2785     0.1038     0.6105     1.5438   166.0800     0.4444     0.3871
  521   10.400   2947.11     0.5048     0.0085     0.2822     0.1040     0.6232     1.6925   166.4000     0.4568     0.3896
  522   10.420   2948.12     0.5279     0.0083     0.2873     0.1042     0.6474     1.5812   166.7200     0.4807     0.3753
  523   10.440   2949.10     0.5836     0.0075     0.2863     0.1044     0.7042     1.3062   167.0400     0.5371     0.3408
  524   10.460   2950.09     0.6842     0.0066     0.2784     0.1046     0.8025     0.9776   167.3600     0.6352     0.2793
  525   10.480   2951.10     0.7985     0.0065     0.2607     0.1048     0.9106     0.8396   167.6800     0.7429     0.2190
  526   10.500   2952.11     0.9543     0.0075     0.2451     0.1050     1.0596     0.8193   168.0000     0.8916     0.1641
  527   10.520   2953.12     1.2145     0.0069     0.2157     0.1052     1.3110     0.5919   168.3200     1.1426     0.1094
  528   10.540   2954.12     1.2434     0.0078     0.1722     0.1054     1.3178     0.6055   168.6400     1.1492     0.0623
  529   10.560   2955.10     1.0168     0.0083     0.1815     0.1056     1.0914     0.7891   168.9600     0.9225     0.0789
  530   10.580   2956.06     0.7501     0.0091     0.1948     0.1058     0.8303     1.1333   169.2800     0.6610     0.1302
  531   10.600   2957.07     0.5626     0.0101     0.2071     0.1060     0.6480     1.7578   169.6000     0.4784     0.2035
  532   10.620   2958.05     0.5335     0.0092     0.2210     0.1062     0.6246     1.7217   169.9200     0.4547     0.2434
  533   10.640   2959.01     0.5411     0.0073     0.2320     0.1064     0.6373     1.3604   170.2400     0.4671     0.2626
  534   10.660   2960.06     0.5291     0.0068     0.2415     0.1066     0.6293     1.2656   170.5600     0.4587     0.2875
  535   10.680   2961.02     0.4964     0.0061     0.2460     0.1068     0.5994     1.2062   170.8800     0.4285     0.3233
  536   10.700   2961.99     0.4966     0.0066     0.2557     0.1070     0.6022     1.3286   171.2000     0.4310     0.3349
  537   10.720   2962.97     0.5071     0.0086     0.2637     0.1072     0.6164     1.7082   171.5200     0.4449     0.3443
  538   10.740   2963.94     0.5170     0.0090     0.2732     0.1074     0.6304     1.7516   171.8400     0.4585     0.3543
  539   10.760   2964.93     0.5644     0.0094     0.2862     0.1076     0.6839     1.7034   172.1600     0.5117     0.3458
  540   10.780   2965.93     0.6840     0.0088     0.2825     0.1078     0.8045     1.3184   172.4800     0.6320     0.2835
  541   10.800   2966.95     0.7251     0.0086     0.2660     0.1080     0.8398     1.1931   172.8000     0.6670     0.2473
  542   10.820   2967.93     0.7573     0.0075     0.2611     0.1082     0.8667     1.0089   173.1200     0.6936     0.2195
  543   10.840   2968.93     0.8332     0.0063     0.2565     0.1084     0.9417     0.7760   173.4400     0.7682     0.1953
  544   10.860   2969.91     0.9950     0.0054     0.2470     0.1086     1.0987     0.5610   173.7600     0.9250     0.1497
  545   10.880   2970.92     1.1533     0.0044     0.2393     0.1088     1.2553     0.3899   174.0800     1.0812     0.1240
  546   10.900   2971.86     1.2822     0.0041     0.2348     0.1090     1.3815     0.3254   174.4000     1.2071     0.1055
  547   10.920   2972.87     1.4907     0.0062     0.2222     0.1092     1.5852     0.4187   174.7200     1.4104     0.0822
  548   10.940   2973.85     1.6618     0.0078     0.2153     0.1094     1.7526     0.4740   175.0400     1.5776     0.0678
  549   10.960   2974.87     1.7298     0.0077     0.2168     0.1096     1.8203     0.4451   175.3600     1.6449     0.0644
  550   10.980   2975.85     1.7540     0.0074     0.2218     0.1098     1.8463     0.4204   175.6800     1.6707     0.0659
  551   11.000   2976.90     1.9028     0.0076     0.2231     0.1100     1.9965     0.4072   176.0000     1.8205     0.0622
  552   11.020   2977.93     1.9277     0.0085     0.2199     0.1102     2.0207     0.4369   176.3200     1.8444     0.0602
  553   11.040   2978.85     1.5246     0.0069     0.2178     0.1104     1.6154     0.4382   176.6400     1.4388     0.0737
  554   11.060   2979.88     1.2251     0.0060     0.2295     0.1106     1.3200     0.4760   176.9600     1.1431     0.1011
  555   11.080   2980.88     1.2572     0.0066     0.2359     0.1108     1.3561     0.5336   177.2800     1.1789     0.1059
  556   11.100   2981.87     1.5250     0.0072     0.2206     0.1110     1.6222     0.4825   177.6000     1.4446     0.0836
  557   11.120   2982.87     1.8031     0.0075     0.1731     0.1112     1.8837     0.4202   177.9200     1.7058     0.0474
  558   11.140   2983.84     1.6470     0.0061     0.1569     0.1114     1.7123     0.3591   178.2400     1.5341     0.0287
  559   11.160   2984.88     1.2886     0.0050     0.1676     0.1116     1.3572     0.3685   178.5600     1.1787     0.0441
  560   11.180   2985.84     1.0222     0.0052     0.1811     0.1118     1.0963     0.4887   178.8800     0.9175     0.0707
  561   11.200   2986.80     0.8393     0.0054     0.1970     0.1120     0.9196     0.6285   179.2000     0.7404     0.1073
  562   11.220   2987.83     0.7165     0.0066     0.2147     0.1122     0.8041     0.9086   179.5200     0.6246     0.1547
  563   11.240   2988.81     0.8027     0.0069     0.2343     0.1124     0.8986     0.9098   179.8400     0.7188     0.1617
  564   11.260   2989.78     1.0612     0.0064     0.2431     0.1126     1.1629     0.6249   180.1600     0.9828     0.1322
  565   11.280   2990.77     1.2487     0.0073     0.2273     0.1128     1.3477     0.5851   180.4800     1.1673     0.1054
  566   11.300   2991.80     1.1847     0.0075     0.2213     0.1130     1.2765     0.6213   180.8000     1.0957     0.0964
  567   11.320   2992.79     1.1029     0.0073     0.2306     0.1132     1.1983     0.6530   181.1200     1.0172     0.1121
  568   11.340   2993.77     1.1703     0.0079     0.2414     0.1134     1.2704     0.6965   181.4400     1.0890     0.1149
  569   11.360   2994.75     1.3642     0.0077     0.2390     0.1136     1.4654     0.5726   181.7600     1.2836     0.0994
  570   11.380   2995.72     1.4561     0.0074     0.2240     0.1138     1.5531     0.5069   182.0800     1.3710     0.0855
  571   11.400   2996.73     1.3661     0.0069     0.2210     0.1140     1.4580     0.5024   182.4000     1.2756     0.0824
  572   11.420   2997.67     1.1505     0.0070     0.2288     0.1142     1.2451     0.5998   182.7200     1.0624     0.1050
  573   11.440   2998.69     0.9390     0.0065     0.2444     0.1144     1.0392     0.6892   183.0400     0.8561     0.1455
  574   11.460   2999.72     0.7736     0.0071     0.2672     0.1146     0.8819     0.8972   183.3600     0.6985     0.2058
  575   11.480   3000.72     0.6746     0.0088     0.2921     0.1148     0.7939     1.3021   183.6800     0.6103     0.2776
  576   11.500   3001.73     0.6743     0.0110     0.3127     0.1150     0.8029     1.6423   184.0000     0.6189     0.3088
  577   11.520   3002.74     0.7038     0.0133     0.3237     0.1152     0.8389     1.9084   184.3200     0.6546     0.3154
  578   11.540   3003.71     0.7522     0.0160     0.2975     0.1154     0.8831     2.1481   184.6400     0.6985     0.2814
  579   11.560   3004.69     0.8109     0.0185     0.2730     0.1156     0.9280     2.2984   184.9600     0.7431     0.2198
  580   11.580   3005.71     0.8439     0.0226     0.2630     0.1158     0.9555     2.6811   185.2800     0.7702     0.1945
  581   11.600   3006.73     0.8611     0.0257     0.2563     0.1160     0.9695     2.9905   185.6000     0.7839     0.1814
  582   11.620   3007.73     0.8893     0.0287     0.2408     0.1162     0.9933     3.2433   185.9200     0.8073     0.1626
  583   11.640   3008.71     0.9295     0.0309     0.2180     0.1164     1.0236     3.3541   186.2400     0.8373     0.1285
  584   11.660   3009.72     0.9648     0.0331     0.2115     0.1166     1.0552     3.4432   186.5600     0.8686     0.1135
  585   11.680   3010.70     0.9972     0.0351     0.1992     0.1168     1.0827     3.5375   186.8800     0.8958     0.0969
  586   11.700   3011.67     1.0139     0.0363     0.1869     0.1170     1.0927     3.5848   187.2000     0.9055     0.0778
  587   11.720   3012.71     1.0223     0.0366     0.1978     0.1172     1.1060     3.6009   187.5200     0.9185     0.0895
  588   11.740   3013.68     1.0409     0.0369     0.1890     0.1174     1.1224     3.5727   187.8400     0.9345     0.0821
  589   11.760   3014.68     1.0813     0.0387     0.1854     0.1176     1.1601     3.5871   188.1600     0.9719     0.0720
  590   11.780   3015.67     1.1254     0.0413     0.1736     0.1178     1.2005     3.7001   188.4800     1.0120     0.0602
  591   11.800   3016.65     1.1666     0.0440     0.1737     0.1180     1.2391     3.8131   188.8000     1.0503     0.0520
  592   11.820   3017.66     1.1966     0.0457     0.1676     0.1182     1.2681     3.8729   189.1200     1.0790     0.0483
  593   11.840   3018.65     1.2291     0.0450     0.1588     0.1184     1.2980     3.6936   189.4400     1.1086     0.0412
  594   11.860   3019.63     1.2474     0.0453     0.1543     0.1186     1.3096     3.6264   189.7600     1.1199     0.0263
  595   11.880   3032.12     1.2653     0.0452     0.1722     0.1188     1.3350     3.6363   190.0800     1.1450     0.0406
  596   11.900   3049.01     1.2943     0.0455     0.1902     0.1190     1.3716     3.6594   190.4000     1.1812     0.0544
  597   11.920   3065.47     1.3241     0.0486     0.2087     0.1192     1.4090     3.6846   190.7200     1.2183     0.0680
  598   11.940   3066.47     1.3832     0.0498     0.1844     0.1194     1.4623     3.6222   191.0400     1.2713     0.0543
  599   11.960   3067.49     1.4456     0.0514     0.1766     0.1196     1.5236     3.5717   191.3600     1.3322     0.0497
  600   11.980   3068.48     1.4574     0.0517     0.1705     0.1198     1.5240     3.5464   191.6800     1.3323     0.0289
  601   12.000   3069.49     1.4515     0.0535     0.1517     0.1200     1.5201     3.6873   192.0000     1.3281     0.0326
  602   12.020   3070.50     1.4499     0.0560     0.1450     0.1202     1.5116     3.8643   192.3200     1.3193     0.0202
  603   12.040   3071.49     1.4878     0.0574     0.1543     0.1204     1.5521     3.8865   192.6400     1.3594     0.0240
  604   12.060   3072.45     1.5688     0.0598     0.1382     0.1206     1.6272     3.8460   192.9600     1.4342     0.0127
  605   12.080   3073.45     1.6322     0.0623     0.1208     0.1208     1.6870     3.8417   193.2800     1.4937     0.0065
  606   12.100   3074.46     1.6542     0.0667     0.0923     0.1210     1.6990     4.0241   193.6000     1.5054    -0.0094
  607   12.120   3075.44     1.6077     0.0718     0.0876     0.1212     1.6452     4.4412   193.9200     1.4513    -0.0220
  608   12.140   3076.44     1.5662     0.0742     0.0852     0.1214     1.6028     4.7164   194.2400     1.4085    -0.0244
  609   12.160   3077.45     1.5297     0.0721     0.0824     0.1216     1.5649     4.7026   194.5600     1.3704    -0.0276
  610   12.180   3078.42     1.5270     0.0709     0.0817     0.1218     1.5618     4.6465   194.8800     1.3670    -0.0285
  611   12.200   3079.42     1.5279     0.0691     0.0821     0.1220     1.5618     4.5214   195.2000     1.3666    -0.0302
  612   12.220   3080.41     1.5247     0.0693     0.0845     0.1222     1.5605     4.5356   195.5200     1.3650    -0.0270
  613   12.240   3081.39     1.5358     0.0716     0.0817     0.1224     1.5710     4.6656   195.8400     1.3752    -0.0280
  614   12.260   3082.39     1.5944     0.0729     0.0739     0.1226     1.6261     4.5900   196.1600     1.4300    -0.0329
  615   12.280   3083.39     1.6076     0.0764     0.0692     0.1228     1.6376     4.7550   196.4800     1.4411    -0.0356
  616   12.300   3084.38     1.6080     0.0811     0.0622     0.1230     1.6347     5.0470   196.8000     1.4379    -0.0413
  617   12.320   3085.37     1.6202     0.0820     0.0531     0.1232     1.6436     5.0619   197.1200     1.4465    -0.0467
  618   12.340   3086.37     1.6117     0.0810     0.0447     0.1234     1.6311     5.0144   197.4400     1.4336    -0.0539
  619   12.360   3087.34     1.5648     0.0793     0.0395     0.1236     1.5818     5.0609   197.7600     1.3840    -0.0601
  620   12.380   3088.37     1.5419     0.0761     0.0380     0.1238     1.5576     4.9368   198.0800     1.3596    -0.0634
  621   12.400   3089.34     1.5257     0.0729     0.0389     0.1240     1.5418     4.7780   198.4000     1.3434    -0.0637
  622   12.420   3090.33     1.5024     0.0708     0.0452     0.1242     1.5204     4.7070   198.7200     1.3217    -0.0615
  623   12.440   3091.38     1.4863     0.0683     0.0508     0.1244     1.5073     4.5939   199.0400     1.3083    -0.0568
  624   12.460   3092.36     1.4900     0.0675     0.0548     0.1246     1.5117     4.5379   199.3600     1.3123    -0.0555
  625   12.480   3093.41     1.4915     0.0669     0.0578     0.1248     1.5155     4.4845   199.6800     1.3158    -0.0515
  626   12.500   3094.41     1.5021     0.0672     0.0608     0.1250     1.5272     4.4748   200.0000     1.3272    -0.0492
  627   12.520   3095.39     1.5063     0.0677     0.0597     0.1252     1.5321     4.4956   200.3200     1.3318    -0.0479
  628   12.540   3096.42     1.5141     0.0660     0.0619     0.1254     1.5391     4.3581   200.6400     1.3385    -0.0493
  629   12.560   3097.40     1.4757     0.0627     0.0632     0.1256     1.5026     4.2396   200.9600     1.3016    -0.0473
  630   12.580   3098.42     1.4551     0.0610     0.0635     0.1258     1.4820     4.1881   201.2800     1.2807    -0.0483
  631   12.600   3099.46     1.4458     0.0598     0.0686     0.1260     1.4743     4.1352   201.6000     1.2727    -0.0455
  632   12.620   3100.43     1.4348     0.0597     0.0735     0.1262     1.4652     4.1458   201.9200     1.2632    -0.0426
  633   12.640   3101.41     1.4193     0.0592     0.0754     0.1264     1.4507     4.1676   202.2400     1.2484    -0.0413
  634   12.660   3102.41     1.4093     0.0589     0.0761     0.1266     1.4416     4.1772   202.5600     1.2391    -0.0401
  635   12.680   3103.39     1.3961     0.0582     0.0766     0.1268     1.4288     4.1653   202.8800     1.2259    -0.0400
  636   12.700   3104.42     1.3810     0.0593     0.0814     0.1270     1.4145     4.2880   203.2000     1.2113    -0.0390
  637   12.720   3105.47     1.3607     0.0572     0.0874     0.1272     1.3967     4.1969   203.5200     1.1932    -0.0347
  638   12.740   3106.42     1.3487     0.0571     0.0902     0.1274     1.3857     4.2482   203.8400     1.1819    -0.0332
  639   12.760   3107.43     1.3734     0.0554     0.0949     0.1276     1.4124     4.0325   204.1600     1.2083    -0.0288
  640   12.780   3108.45     1.3915     0.0540     0.0964     0.1278     1.4323     3.8903   204.4800     1.2279    -0.0250
  641   12.800   3109.45     1.4240     0.0539     0.1014     0.1280     1.4654     3.7878   204.8000     1.2606    -0.0233
  642   12.820   3110.48     1.4254     0.0552     0.0983     0.1282     1.4666     3.8808   205.1200     1.2615    -0.0239
  643   12.840   3111.46     1.4200     0.0564     0.0947     0.1284     1.4607     3.9715   205.4400     1.2553    -0.0251
  644   12.860   3112.49     1.4042     0.0574     0.0920     0.1286     1.4436     4.0864   205.7600     1.2378    -0.0282
  645   12.880   3113.46     1.3739     0.0559     0.0875     0.1288     1.4111     4.0626   206.0800     1.2050    -0.0334
  646   12.900   3114.48     1.3275     0.0565     0.0815     0.1290     1.3622     4.1954   206.4000     1.1558    -0.0400
  647   12.920   3115.45     1.2736     0.0534     0.0816     0.1292     1.3077     4.1249   206.7200     1.1009    -0.0437
  648   12.940   3116.50     1.2216     0.0504     0.0812     0.1294     1.2550     4.1212   207.0400     1.0480    -0.0476
  649   12.960   3117.55     1.1752     0.0474     0.0840     0.1296     1.2104     4.0282   207.3600     1.0031    -0.0456
  650   12.980   3118.55     1.1407     0.0453     0.0857     0.1298     1.1765     3.9634   207.6800     0.9688    -0.0460
  651   13.000   3119.58     1.0767     0.0424     0.0884     0.1300     1.1135     3.9232   208.0000     0.9055    -0.0468
  652   13.020   3120.56     1.0558     0.0379     0.0883     0.1302     1.0926     3.5806   208.3200     0.8842    -0.0483
  653   13.040   3121.57     1.0327     0.0340     0.0904     0.1304     1.0709     3.2682   208.6400     0.8623    -0.0456
  654   13.060   3122.60     0.9782     0.0325     0.0927     0.1306     1.0169     3.3068   208.9600     0.8079    -0.0476
  655   13.080   3123.62     0.9434     0.0309     0.1000     0.1308     0.9844     3.2666   209.2800     0.7751    -0.0429
  656   13.100   3124.60     0.9226     0.0272     0.1056     0.1310     0.9660     2.9521   209.6000     0.7564    -0.0366
  657   13.120   3125.63     0.9067     0.0252     0.1113     0.1312     0.9530     2.7762   209.9200     0.7431    -0.0284
  658   13.140   3126.65     0.8931     0.0236     0.1137     0.1314     0.9404     2.6401   210.2400     0.7301    -0.0258
  659   13.160   3127.62     0.8808     0.0212     0.1139     0.1316     0.9284     2.4025   210.5600     0.7178    -0.0253
  660   13.180   3128.60     0.8903     0.0200     0.1195     0.1318     0.9397     2.2443   210.8800     0.7289    -0.0193
  661   13.200   3129.64     0.8780     0.0193     0.1250     0.1320     0.9296     2.1922   211.2000     0.7184    -0.0126
  662   13.220   3130.63     0.8483     0.0176     0.1295     0.1322     0.9018     2.0628   211.5200     0.6903    -0.0070
  663   13.240   3131.65     0.8272     0.0160     0.1343     0.1324     0.8830     1.9262   211.8400     0.6711     0.0006
  664   13.260   3132.64     0.7940     0.0157     0.1405     0.1326     0.8520     1.9703   212.1600     0.6399     0.0087
  665   13.280   3133.66     0.7714     0.0153     0.1477     0.1328     0.8322     1.9910   212.4800     0.6198     0.0195
  666   13.300   3134.65     0.7615     0.0151     0.1568     0.1330     0.8259     1.9821   212.8000     0.6131     0.0335
  667   13.320   3135.64     0.7564     0.0144     0.1623     0.1332     0.8238     1.9131   213.1200     0.6107     0.0448
  668   13.340   3136.64     0.7817     0.0141     0.1702     0.1334     0.8520     1.8271   213.4400     0.6385     0.0531
  669   13.360   3137.66     0.8048     0.0139     0.1773     0.1336     0.8784     1.7285   213.7600     0.6646     0.0626
  670   13.380   3138.66     0.7944     0.0139     0.1862     0.1338     0.8712     1.7326   214.0800     0.6572     0.0747
  671   13.400   3139.64     0.7996     0.0163     0.1948     0.1340     0.8802     2.0454   214.4000     0.6658     0.0869
  672   13.420   3140.68     0.8486     0.0171     0.2010     0.1342     0.9322     2.0419   214.7200     0.7175     0.0905
  673   13.440   3141.69     0.9341     0.0177     0.2107     0.1344     1.0212     1.9061   215.0400     0.8062     0.0905
  674   13.460   3142.70     1.0544     0.0176     0.2118     0.1346     1.1438     1.7213   215.3600     0.9285     0.0844
  675   13.480   3143.72     1.1687     0.0210     0.2036     0.1348     1.2545     1.8393   215.6800     1.0388     0.0670
  676   13.500   3144.73     1.1510     0.0219     0.2094     0.1350     1.2379     1.8761   216.0000     1.0219     0.0705
  677   13.520   3145.78     1.2295     0.0213     0.2183     0.1352     1.3203     1.8174   216.3200     1.1040     0.0734
  678   13.540   3146.78     1.3363     0.0224     0.2215     0.1354     1.4291     1.6861   216.6400     1.2124     0.0705
  679   13.560   3147.80     1.5464     0.0236     0.2145     0.1356     1.6376     1.5486   216.9600     1.4207     0.0576
  680   13.580   3148.80     1.6997     0.0239     0.1934     0.1358     1.7856     1.4165   217.2800     1.5683     0.0439
  681   13.600   3149.84     1.5950     0.0228     0.1623     0.1360     1.6660     1.4147   217.6000     1.4484     0.0226
  682   13.620   3150.86     1.4317     0.0228     0.1575     0.1362     1.4979     1.5718   217.9200     1.2800     0.0168
  683   13.640   3151.88     1.2985     0.0217     0.1515     0.1364     1.3630     1.6485   218.2400     1.1448     0.0149
  684   13.660   3152.88     1.1700     0.0176     0.1429     0.1366     1.2313     1.4924   218.5600     1.0127     0.0093
  685   13.680   3153.84     1.0608     0.0152     0.1409     0.1368     1.1197     1.4270   218.8800     0.9009     0.0038
  686   13.700   3154.83     0.9869     0.0157     0.1461     0.1370     1.0473     1.5185   219.2000     0.8281     0.0082
  687   13.720   3155.87     0.9840     0.0185     0.1504     0.1372     1.0466     1.7045   219.5200     0.8270     0.0142
  688   13.740   3156.83     1.0856     0.0214     0.1547     0.1374     1.1500     1.8906   219.8400     0.9301     0.0171
  689   13.760   3157.83     1.2364     0.0242     0.1572     0.1376     1.3014     1.9888   220.1600     1.0813     0.0159
  690   13.780   3158.81     1.4783     0.0232     0.1656     0.1378     1.5468     1.6113   220.4800     1.3263     0.0191
  691   13.800   3159.84     1.9066     0.0198     0.1538     0.1380     1.9757     1.0762   220.8000     1.7549     0.0153
  692   13.820   3174.75     2.3650     0.0186     0.1155     0.1382     2.4191     0.9545   221.1200     2.1980     0.0013
  693   13.840   3190.70     2.8161     0.0174     0.0773     0.1384     2.8541     0.8940   221.4400     2.6327    -0.0131
  694   13.860   3206.66     3.2672     0.0208     0.0452     0.1386     3.2891     1.0717   221.7600     3.0674    -0.0275
  695   13.880   3209.36     3.2521     0.0235     0.0332     0.1388     3.2679     0.7129   222.0800     3.0458    -0.0332
  696   13.900   3210.38     3.1025     0.0277     0.0230     0.1390     3.1140     0.8869   222.4000     2.8916    -0.0387
  697   13.920   3211.40     2.8875     0.0260     0.0231     0.1392     2.8967     0.8976   222.7200     2.6740    -0.0439
  698   13.940   3212.39     2.6048     0.0250     0.0298     0.1394     2.6161     0.9104   223.0400     2.3930    -0.0470
  699   13.960   3213.44     2.3831     0.0243     0.0392     0.1396     2.3996     1.0146   223.3600     2.1762    -0.0462
  700   13.980   3214.47     2.1258     0.0232     0.0200     0.1398     2.1353     1.0338   223.6800     1.9116    -0.0613
  701   14.000   3215.49     2.0829     0.0227     0.0133     0.1400     2.0885     1.0856   224.0000     1.8645    -0.0680
  702   14.020   3216.45     1.9233     0.0208     0.0146     0.1402     1.9294     1.0742   224.3200     1.7051    -0.0736
  703   14.040   3217.50     1.7792     0.0169     0.0206     0.1404     1.7865     0.9430   224.6400     1.5618    -0.0787
  704   14.060   3218.50     1.7054     0.0150     0.0273     0.1406     1.7163     0.8760   224.9600     1.4913    -0.0769
  705   14.080   3219.53     1.6407     0.0150     0.0310     0.1408     1.6534     0.9150   225.2800     1.4281    -0.0774
  706   14.100   3220.48     1.6378     0.0140     0.0330     0.1410     1.6510     0.8524   225.6000     1.4254    -0.0769
  707   14.120   3221.51     1.4980     0.0151     0.0374     0.1412     1.5129     0.9970   225.9200     1.2870    -0.0821
  708   14.140   3222.51     1.4094     0.0185     0.0436     0.1414     1.4269     1.3119   226.2400     1.2007    -0.0830
  709   14.160   3223.52     1.4109     0.0216     0.0516     0.1416     1.4314     1.5346   226.5600     1.2049    -0.0770
  710   14.180   3224.52     1.4345     0.0218     0.0559     0.1418     1.4573     1.5175   226.8800     1.2304    -0.0713
  711   14.200   3225.50     1.4441     0.0217     0.0643     0.1420     1.4698     1.5009   227.2000     1.2426    -0.0652
  712   14.220   3226.52     1.4996     0.0248     0.0710     0.1422     1.5286     1.6594   227.5200     1.3010    -0.0563
  713   14.240   3227.54     1.6352     0.0241     0.0787     0.1424     1.6670     1.4740   227.8400     1.4391    -0.0464
  714   14.260   3228.56     1.6714     0.0210     0.0829     0.1426     1.7054     1.2694   228.1600     1.4772    -0.0418
  715   14.280   3229.57     1.6964     0.0218     0.0858     0.1428     1.7320     1.2847   228.4800     1.5035    -0.0386
  716   14.300   3230.55     1.7199     0.0225     0.0884     0.1430     1.7570     1.3129   228.8000     1.5282    -0.0358
  717   14.320   3231.53     1.7767     0.0213     0.0876     0.1432     1.8134     1.2261   229.1200     1.5843    -0.0352
  718   14.340   3232.58     1.7872     0.0243     0.0948     0.1434     1.8248     1.3618   229.4400     1.5954    -0.0337
  719   14.360   3233.61     1.7064     0.0247     0.0912     0.1436     1.7438     1.4154   229.7600     1.5140    -0.0360
  720   14.380   3234.63     1.7859     0.0230     0.0904     0.1438     1.8239     1.3111   230.0800     1.5939    -0.0334
  721   14.400   3235.62     1.9323     0.0240     0.0907     0.1440     1.9703     1.2990   230.4000     1.7399    -0.0308
  722   14.420   3236.66     2.1931     0.0303     0.0968     0.1442     2.2334     1.4243   230.7200     2.0026    -0.0242
  723   14.440   3237.67     2.3019     0.0328     0.0866     0.1444     2.3404     1.4296   231.0400     2.1094    -0.0250
  724   14.460   3238.71     2.2075     0.0388     0.0809     0.1446     2.2407     1.7163   231.3600     2.0093    -0.0326
  725   14.480   3239.69     2.1173     0.0416     0.0894     0.1448     2.1550     1.9299   231.6800     1.9233    -0.0286
  726   14.500   3240.72     1.9819     0.0456     0.0808     0.1450     2.0161     2.2237   232.0000     1.7841    -0.0356
  727   14.520   3241.76     1.9375     0.0482     0.0877     0.1452     1.9732     2.4784   232.3200     1.7408    -0.0347
  728   14.540   3242.81     1.9333     0.0435     0.0910     0.1454     1.9716     2.2343   232.6400     1.7389    -0.0312
  729   14.560   3243.82     1.9421     0.0385     0.0919     0.1456     1.9802     2.0018   232.9600     1.7472    -0.0314
  730   14.580   3244.84     2.0052     0.0362     0.0957     0.1458     2.0445     1.8085   233.2800     1.8112    -0.0288
  731   14.600   3245.84     2.1682     0.0351     0.1018     0.1460     2.2101     1.6280   233.6000     1.9765    -0.0235
  732   14.620   3246.83     2.4026     0.0286     0.1096     0.1462     2.4473     1.2332   233.9200     2.2134    -0.0179
  733   14.640   3247.93     2.6037     0.0258     0.1160     0.1464     2.6516     0.9994   234.2400     2.4173    -0.0134
  734   14.660   3248.90     2.8439     0.0287     0.1184     0.1466     2.8941     1.0146   234.5600     2.6595    -0.0102
  735   14.680   3249.92     3.0568     0.0366     0.1139     0.1468     3.1056     1.2409   234.8800     2.8708    -0.0107
  736   14.700   3250.94     3.1549     0.0365     0.1062     0.1470     3.1992     1.1604   235.2000     2.9640    -0.0140
  737   14.720   3251.97     3.1001     0.0339     0.1057     0.1472     3.1450     1.0883   235.5200     2.9095    -0.0138
  738   14.740   3252.97     3.1099     0.0372     0.1011     0.1474     3.1528     1.1963   235.8400     2.9170    -0.0155
  739   14.760   3253.97     3.1699     0.0431     0.0899     0.1476     3.2106     1.3601   236.1600     2.9744    -0.0170
  740   14.780   3255.04     3.0759     0.0460     0.0570     0.1478     3.1037     1.4885   236.4800     2.8672    -0.0285
  741   14.800   3256.05     2.9397     0.0445     0.0548     0.1480     2.9632     1.5125   236.8000     2.7264    -0.0337
  742   14.820   3257.08     2.8115     0.0421     0.0414     0.1482     2.8308     1.4883   237.1200     2.5936    -0.0395
  743   14.840   3258.08     2.7421     0.0409     0.0269     0.1484     2.7548     1.4918   237.4400     2.5173    -0.0470
  744   14.860   3259.07     2.7295     0.0393     0.0212     0.1486     2.7391     1.4405   237.7600     2.5013    -0.0503
  745   14.880   3260.09     2.7481     0.0360     0.0063     0.1488     2.7532     1.3157   238.0800     2.5151    -0.0543
  746   14.900   3261.16     2.7169     0.0287    -0.0099     0.1490     2.7154     1.0462   238.4000     2.4770    -0.0617
  747   14.920   3262.16     2.4385     0.0287    -0.0529     0.1492     2.4230     1.1012   238.7200     2.1842    -0.0858
  748   14.940   3263.16     2.0221     0.0273    -0.0787     0.1494     1.9916     1.2437   239.0400     1.7526    -0.1272
  749   14.960   3264.16     1.6145     0.0268    -0.0809     0.1496     1.5806     1.4805   239.3600     1.3413    -0.1728
  750   14.980   3265.21     1.3754     0.0271    -0.0776     0.1498     1.3422     1.9041   239.6800     1.1025    -0.2078
  751   15.000   3266.22     1.5185     0.0302    -0.0696     0.1500     1.4879     2.1170   240.0000     1.2479    -0.1789
  752   15.020   3267.24     1.7093     0.0303    -0.0631     0.1502     1.6820     1.8725   240.3200     1.4417    -0.1494
  753   15.040   3268.27     1.7620     0.0240    -0.0582     0.1504     1.7368     1.3589   240.6400     1.4962    -0.1406
  754   15.060   3269.29     1.6993     0.0267    -0.0529     0.1506     1.6762     1.5579   240.9600     1.4352    -0.1432
  755   15.080   3270.34     1.7751     0.0280    -0.0466     0.1508     1.7547     1.5829   241.2800     1.5134    -0.1318
  756   15.100   3271.36     1.9737     0.0266    -0.0419     0.1510     1.9554     1.3603   241.6000     1.7138    -0.1136
  757   15.120   3272.37     2.0784     0.0301    -0.0399     0.1512     2.0618     1.4448   241.9200     1.8199    -0.1048
  758   15.140   3273.37     1.5635     0.0268    -0.0416     0.1514     1.5458     1.4540   242.2400     1.3035    -0.1490
  759   15.160   3274.40     1.4740     0.0353    -0.0454     0.1516     1.4572     2.3898   242.5600     1.2146    -0.1577
  760   15.180   3275.38     1.3613     0.0477    -0.0534     0.1518     1.3387     3.4869   242.8800     1.0958    -0.1876
  761   15.200   3276.43     1.9279     0.0542    -0.0548     0.1520     1.9048     3.0157   243.2000     1.6616    -0.1246
  762   15.220   3277.46     2.2974     0.0579    -0.0624     0.1522     2.2744     2.5426   243.5200     2.0309    -0.1019
  763   15.240   3278.43     2.9244     0.0548    -0.0574     0.1524     2.8978     2.1116   243.8400     2.6540    -0.0813
  764   15.260   3279.43     2.0830     0.0479    -0.0713     0.1526     2.0818     2.2757   244.1600     1.8377    -0.0852
  765   15.280   3280.44     1.7454     0.0427    -0.1376     0.1528     1.6865     2.4225   244.4800     1.4420    -0.2033
  766   15.300   3281.42     1.5627     0.0391    -0.1331     0.1530     1.5066     2.4224   244.8000     1.2618    -0.2272
  767   15.320   3282.48     1.6991     0.0211    -0.1298     0.1532     1.6438     1.3083   245.1200     1.3987    -0.2036
  768   15.340   3283.51     1.9929     0.0202    -0.1248     0.1534     1.9393     1.0922   245.4400     1.6938    -0.1661
  769   15.360   3284.55     2.1958     0.0172    -0.1191     0.1536     2.1452     0.7827   245.7600     1.8994    -0.1442
  770   15.380   3285.53     1.8611     0.0154    -0.1186     0.1538     1.8114     0.7865   246.0800     1.5653    -0.1759
  771   15.400   3286.54     1.4901     0.0129    -0.1151     0.1540     1.4409     0.8168   246.4000     1.1945    -0.2271
  772   15.420   3287.59     1.3264     0.0113    -0.1110     0.1542     1.2791     0.8358   246.7200     1.0324    -0.2589
  773   15.440   3288.58     1.1827     0.0106    -0.1054     0.1544     1.1375     0.8630   247.0400     0.8904    -0.2944
  774   15.460   3289.63     1.1248     0.0116    -0.0967     0.1546     1.0830     1.0168   247.3600     0.8357    -0.3043
  775   15.480   3290.64     1.0906     0.0144    -0.0882     0.1548     1.0523     1.3109   247.6800     0.8046    -0.3060
  776   15.500   3291.68     1.2208     0.0182    -0.0806     0.1550     1.1860     1.5547   248.0000     0.9380    -0.2543
  777   15.520   3292.66     1.4791     0.0189    -0.0743     0.1552     1.4468     1.4164   248.3200     1.1985    -0.1943
  778   15.540   3293.72     1.7471     0.0166    -0.0688     0.1554     1.7177     0.9559   248.6400     1.4691    -0.1536
  779   15.560   3294.71     1.7605     0.0160    -0.0649     0.1556     1.7326     0.8917   248.9600     1.4837    -0.1496
  780   15.580   3295.73     1.6017     0.0168    -0.0582     0.1558     1.5763     1.0399   249.2800     1.3270    -0.1631
  781   15.600   3296.75     1.3938     0.0168    -0.0528     0.1560     1.3707     1.1953   249.6000     1.1211    -0.1884
  782   15.620   3297.75     1.2929     0.0153    -0.0462     0.1562     1.2725     1.1856   249.9200     1.0226    -0.2003
  783   15.640   3298.77     1.3229     0.0127    -0.0399     0.1564     1.3053     0.9642   250.2400     1.0551    -0.1881
  784   15.660   3299.82     1.3197     0.0112    -0.0338     0.1566     1.3046     0.8445   250.5600     1.0540    -0.1827
  785   15.680   3300.80     1.2289     0.0105    -0.0270     0.1568     1.2166     0.8458   250.8800     0.9657    -0.1927
  786   15.700   3301.78     1.1720     0.0113    -0.0200     0.1570     1.1625     0.9524   251.2000     0.9113    -0.1970
  787   15.720   3302.76     1.1412     0.0124    -0.0124     0.1572     1.1348     1.0712   251.5200     0.8833    -0.1952
  788   15.740   3303.83     1.1289     0.0132    -0.0038     0.1574     1.1261     1.1701   251.8400     0.8742    -0.1877
  789   15.760   3304.82     1.1205     0.0132     0.0051     0.1576     1.1214     1.1762   252.1600     0.8692    -0.1788
  790   15.780   3305.83     1.1189     0.0133     0.0134     0.1578     1.1232     1.1898   252.4800     0.8707    -0.1695
  791   15.800   3313.84     1.1197     0.0137     0.1213     0.1580     1.1504     1.2231   252.8000     0.8976    -0.1019
  792   15.820   3331.85     1.1106     0.0142     0.2605     0.1582     1.1998     1.2656   253.1200     0.9467     0.0437
  793   15.840   3349.86     1.1015     0.0145     0.3919     0.1584     1.2493     1.3002   253.4400     0.9958     0.1893
  794   15.860   3355.66     1.0982     0.0140     0.4105     0.1586     1.2678     1.2777   253.7600     1.0141     0.2420
  795   15.880   3356.66     1.1011     0.0142     0.4278     0.1588     1.2782     1.2876   254.0800     1.0241     0.2566
  796   15.900   3357.68     1.0978     0.0145     0.4431     0.1590     1.2815     1.3190   254.4000     1.0271     0.2710
  797   15.920   3358.69     1.0879     0.0148     0.4624     0.1592     1.2793     1.3518   254.7200     1.0246     0.2894
  798   15.940   3359.68     1.0885     0.0144     0.4787     0.1594     1.2875     1.3262   255.0400     1.0324     0.3044
  799   15.960   3360.70     1.0908     0.0143     0.4945     0.1596     1.2958     1.3073   255.3600     1.0405     0.3159
  800   15.980   3361.72     1.0938     0.0148     0.5110     0.1598     1.3059     1.3574   255.6800     1.0502     0.3285
  801   16.000   3362.75     1.1012     0.0153     0.5325     0.1600     1.3220     1.3921   256.0000     1.0660     0.3432
  802   16.020   3363.79     1.0896     0.0157     0.5493     0.1602     1.3182     1.4375   256.3200     1.0619     0.3617
  803   16.040   3364.78     1.0906     0.0155     0.5641     0.1604     1.3254     1.4215   256.6400     1.0688     0.3729
  804   16.060   3365.77     1.0993     0.0152     0.5797     0.1606     1.3406     1.3868   256.9600     1.0836     0.3820
  805   16.080   3366.80     1.0979     0.0149     0.6002     0.1608     1.3476     1.3524   257.2800     1.0904     0.3979
  806   16.100   3367.81     1.0897     0.0151     0.6141     0.1610     1.3456     1.3846   257.6000     1.0880     0.4121
  807   16.120   3368.81     1.0908     0.0157     0.6251     0.1612     1.3517     1.4435   257.9200     1.0938     0.4205
  808   16.140   3369.81     1.0909     0.0161     0.6382     0.1614     1.3570     1.4733   258.2400     1.0987     0.4296
  809   16.160   3370.80     1.0922     0.0161     0.6487     0.1616     1.3631     1.4741   258.5600     1.1046     0.4378
  810   16.180   3371.79     1.1049     0.0164     0.6606     0.1618     1.3809     1.4842   258.8800     1.1220     0.4413
  811   16.200   3372.80     1.1123     0.0163     0.6715     0.1620     1.3925     1.4652   259.2000     1.1333     0.4458
  812   16.220   3373.81     1.1102     0.0163     0.6837     0.1622     1.3960     1.4643   259.5200     1.1365     0.4559
  813   16.240   3374.79     1.1029     0.0163     0.6916     0.1624     1.3921     1.4817   259.8400     1.1323     0.4647
  814   16.260   3375.82     1.1080     0.0165     0.7024     0.1626     1.4016     1.4868   260.1600     1.1414     0.4699
  815   16.280   3376.82     1.1030     0.0162     0.7116     0.1628     1.4006     1.4686   260.4800     1.1401     0.4787
  816   16.300   3377.80     1.1042     0.0165     0.7185     0.1630     1.4048     1.4915   260.8000     1.1440     0.4830
  817   16.320   3378.81     1.1010     0.0164     0.7239     0.1632     1.4044     1.4942   261.1200     1.1432     0.4890
  818   16.340   3379.81     1.1138     0.0168     0.7314     0.1634     1.4201     1.5179   261.4400     1.1586     0.4883
  819   16.360   3380.84     1.1197     0.0174     0.7393     0.1636     1.4288     1.5505   261.7600     1.1670     0.4905
  820   16.380   3381.82     1.1185     0.0173     0.7477     0.1638     1.4314     1.5456   262.0800     1.1693     0.4970
  821   16.400   3382.87     1.1234     0.0172     0.7541     0.1640     1.4394     1.5355   262.4000     1.1770     0.4999
  822   16.420   3383.85     1.1129     0.0172     0.7587     0.1642     1.4307     1.5310   262.7200     1.1679     0.5072
  823   16.440   3384.90     1.1167     0.0173     0.7661     0.1644     1.4375     1.5461   263.0400     1.1745     0.5104
  824   16.460   3385.94     1.1168     0.0172     0.7718     0.1646     1.4410     1.5440   263.3600     1.1776     0.5156
  825   16.480   3386.93     1.1274     0.0176     0.7766     0.1648     1.4535     1.5634   263.6800     1.1898     0.5141
  826   16.500   3387.93     1.1341     0.0178     0.7780     0.1650     1.4606     1.5740   264.0000     1.1966     0.5117
  827   16.520   3388.97     1.1298     0.0177     0.7738     0.1652     1.4528     1.5655   264.3200     1.1885     0.5082
  828   16.540   3389.95     1.1259     0.0180     0.7719     0.1654     1.4493     1.6001   264.6400     1.1847     0.5104
  829   16.560   3390.99     1.1183     0.0177     0.7744     0.1656     1.4429     1.5812   264.9600     1.1780     0.5156
  830   16.580   3391.98     1.1182     0.0178     0.7846     0.1658     1.4467     1.5905   265.2800     1.1814     0.5218
  831   16.600   3392.98     1.1207     0.0166     0.7886     0.1660     1.4509     1.4804   265.6000     1.1853     0.5232
  832   16.620   3393.98     1.1455     0.0173     0.7844     0.1662     1.4766     1.5115   265.9200     1.2106     0.5138
  833   16.640   3395.02     1.1575     0.0167     0.7798     0.1664     1.4841     1.4427   266.2400     1.2178     0.5017
  834   16.660   3396.01     1.1400     0.0169     0.7776     0.1666     1.4677     1.4778   266.5600     1.2012     0.5109
  835   16.680   3396.99     1.1389     0.0169     0.7694     0.1668     1.4655     1.4893   266.8800     1.1987     0.5098
  836   16.700   3398.00     1.1392     0.0166     0.7157     0.1670     1.4554     1.4542   267.2000     1.1882     0.4930
  837   16.720   3399.00     1.1284     0.0167     0.7243     0.1672     1.4305     1.4800   267.5200     1.1630     0.4748
  838   16.740   3400.03     1.1349     0.0180     0.7369     0.1674     1.4427     1.5869   267.8400     1.1749     0.4814
  839   16.760   3401.03     1.1461     0.0176     0.7540     0.1676     1.4603     1.5387   268.1600     1.1921     0.4869
  840   16.780   3401.99     1.1503     0.0179     0.7690     0.1678     1.4715     1.5576   268.4800     1.2031     0.4962
  841   16.800   3403.02     1.1424     0.0183     0.7632     0.1680     1.4652     1.6028   268.8000     1.1964     0.5021
  842   16.820   3404.03     1.1315     0.0180     0.7725     0.1682     1.4541     1.5966   269.1200     1.1850     0.5063
  843   16.840   3405.02     1.1401     0.0184     0.7836     0.1684     1.4678     1.6114   269.4400     1.1984     0.5106
  844   16.860   3406.05     1.1602     0.0187     0.7904     0.1686     1.4914     1.6170   269.7600     1.2217     0.5077
  845   16.880   3407.05     1.1725     0.0187     0.7939     0.1688     1.5050     1.6006   270.0800     1.2349     0.5042
  846   16.900   3408.05     1.1711     0.0191     0.7824     0.1690     1.4987     1.6268   270.4000     1.2283     0.4974
  847   16.920   3409.06     1.1735     0.0199     0.7730     0.1692     1.4998     1.6969   270.7200     1.2291     0.4944
  848   16.940   3410.06     1.1784     0.0193     0.7752     0.1694     1.5027     1.6360   271.0400     1.2316     0.4894
  849   16.960   3411.08     1.1778     0.0195     0.7774     0.1696     1.5041     1.6589   271.3600     1.2327     0.4926
  850   16.980   3412.06     1.1983     0.0196     0.7828     0.1698     1.5253     1.6397   271.6800     1.2536     0.4856
  851   17.000   3413.06     1.1985     0.0196     0.7839     0.1700     1.5276     1.6353   272.0000     1.2556     0.4886
  852   17.020   3414.10     1.1843     0.0194     0.7878     0.1702     1.5145     1.6395   272.3200     1.2422     0.4959
  853   17.040   3415.11     1.1823     0.0195     0.7872     0.1704     1.5136     1.6494   272.6400     1.2410     0.4984
  854   17.060   3416.14     1.1885     0.0191     0.7935     0.1706     1.5207     1.6098   272.9600     1.2478     0.4972
  855   17.080   3417.13     1.1890     0.0193     0.8040     0.1708     1.5252     1.6210   273.2800     1.2519     0.5030
  856   17.100   3418.16     1.1907     0.0191     0.8032     0.1710     1.5278     1.6055   273.6000     1.2542     0.5036
  857   17.120   3419.18     1.1864     0.0194     0.8080     0.1712     1.5253     1.6290   273.9200     1.2513     0.5080
  858   17.140   3420.15     1.1875     0.0197     0.8148     0.1714     1.5289     1.6565   274.2400     1.2547     0.5112
  859   17.160   3421.17     1.1921     0.0195     0.8138     0.1716     1.5344     1.6406   274.5600     1.2598     0.5106
  860   17.180   3422.19     1.2123     0.0200     0.8136     0.1718     1.5541     1.6505   274.8800     1.2792     0.5019
  861   17.200   3423.21     1.2147     0.0198     0.8056     0.1720     1.5543     1.6317   275.2000     1.2791     0.4977
  862   17.220   3424.20     1.2216     0.0199     0.7983     0.1722     1.5605     1.6275   275.5200     1.2849     0.4939
  863   17.240   3425.20     1.2036     0.0202     0.7821     0.1724     1.5311     1.6747   275.8400     1.2553     0.4839
  864   17.260   3426.23     1.2066     0.0208     0.7911     0.1726     1.5372     1.7281   276.1600     1.2610     0.4873
  865   17.280   3427.21     1.2189     0.0219     0.7977     0.1728     1.5528     1.8024   276.4800     1.2763     0.4876
  866   17.300   3428.19     1.2367     0.0210     0.8004     0.1730     1.5718     1.7069   276.8000     1.2950     0.4825
  867   17.320   3429.23     1.2508     0.0207     0.7883     0.1732     1.5846     1.6561   277.1200     1.3075     0.4755
  868   17.340   3430.21     1.2564     0.0211     0.7768     0.1734     1.5832     1.6740   277.4400     1.3058     0.4631
  869   17.360   3431.20     1.2281     0.0209     0.7846     0.1736     1.5569     1.6911   277.7600     1.2791     0.4763
  870   17.380   3432.18     1.2047     0.0205     0.7999     0.1738     1.5375     1.7028   278.0800     1.2595     0.4913
  871   17.400   3433.19     1.2016     0.0202     0.8157     0.1740     1.5417     1.6813   278.4000     1.2633     0.5033
  872   17.420   3434.22     1.2123     0.0193     0.8307     0.1742     1.5591     1.5890   278.7200     1.2803     0.5087
  873   17.440   3435.24     1.2094     0.0187     0.8456     0.1744     1.5628     1.5466   279.0400     1.2837     0.5196
  874   17.460   3436.24     1.2028     0.0185     0.8551     0.1746     1.5609     1.5383   279.3600     1.2815     0.5290
  875   17.480   3437.25     1.2078     0.0186     0.8605     0.1748     1.5686     1.5368   279.6800     1.2889     0.5309
  876   17.500   3438.27     1.2020     0.0185     0.8614     0.1750     1.5663     1.5411   280.0000     1.2863     0.5383
  877   17.520   3439.26     1.2061     0.0188     0.8653     0.1752     1.5662     1.5604   280.3200     1.2859     0.5305
  878   17.540   3440.29     1.2183     0.0194     0.8680     0.1754     1.5833     1.5938   280.6400     1.3027     0.5325
  879   17.560   3441.29     1.2299     0.0193     0.8618     0.1756     1.5930     1.5686   280.9600     1.3120     0.5251
  880   17.580   3442.29     1.2275     0.0194     0.8557     0.1758     1.5868     1.5765   281.2800     1.3055     0.5205
  881   17.600   3443.32     1.2234     0.0194     0.8495     0.1760     1.5807     1.5891   281.6000     1.2991     0.5193
  882   17.620   3444.34     1.2225     0.0196     0.8509     0.1762     1.5809     1.6052   281.9200     1.2989     0.5212
  883   17.640   3445.33     1.2209     0.0197     0.8508     0.1764     1.5781     1.6144   282.2400     1.2959     0.5203
  884   17.660   3446.31     1.2366     0.0197     0.8465     0.1766     1.5927     1.5936   282.5600     1.3101     0.5124
  885   17.680   3447.31     1.2431     0.0203     0.8494     0.1768     1.5983     1.6346   282.8800     1.3154     0.5085
  886   17.700   3448.29     1.2470     0.0214     0.8524     0.1770     1.6047     1.7142   283.2000     1.3215     0.5107
  887   17.720   3449.33     1.2528     0.0223     0.8480     0.1772     1.6097     1.7794   283.5200     1.3262     0.5072
  888   17.740   3450.32     1.2499     0.0219     0.8529     0.1774     1.6065     1.7461   283.8400     1.3226     0.5077
  889   17.760   3451.33     1.2619     0.0214     0.8485     0.1776     1.6187     1.6969   284.1600     1.3345     0.5035
  890   17.780   3460.51     1.2638     0.0214     0.8451     0.1778     1.6196     1.6931   284.4800     1.3351     0.5013
  891   17.800   3482.67     1.2610     0.0213     0.8393     0.1780     1.6144     1.6853   284.8000     1.3296     0.4989
  892   17.820   3504.83     1.2582     0.0213     0.8351     0.1782     1.6092     1.6893   285.1200     1.3241     0.4965
  893   17.840   3511.19     1.2527     0.0207     0.8413     0.1784     1.6055     1.6486   285.4400     1.3200     0.5012
  894   17.860   3512.18     1.2420     0.0197     0.8489     0.1786     1.5973     1.5839   285.7600     1.3115     0.5089
  895   17.880   3513.22     1.2348     0.0187     0.8571     0.1788     1.5943     1.5176   286.0800     1.3082     0.5177
  896   17.900   3514.21     1.2229     0.0184     0.8655     0.1790     1.5842     1.5060   286.4000     1.2978     0.5250
  897   17.920   3515.24     1.2132     0.0184     0.8716     0.1792     1.5788     1.5124   286.7200     1.2921     0.5351
  898   17.940   3516.24     1.2105     0.0180     0.8751     0.1794     1.5773     1.4842   287.0400     1.2903     0.5378
  899   17.960   3517.26     1.2046     0.0174     0.8755     0.1796     1.5731     1.4422   287.3600     1.2858     0.5428
  900   17.980   3518.25     1.1878     0.0159     0.8756     0.1798     1.5547     1.3419   287.6800     1.2670     0.5475
  901   18.000   3519.26     1.1843     0.0158     0.8754     0.1800     1.5522     1.3359   288.0000     1.2642     0.5505
  902   18.020   3520.25     1.1747     0.0167     0.8648     0.1802     1.5388     1.4171   288.3200     1.2505     0.5491
  903   18.040   3521.26     1.1750     0.0157     0.8664     0.1804     1.5399     1.3314   288.6400     1.2513     0.5503
  904   18.060   3522.27     1.1644     0.0150     0.8524     0.1806     1.5243     1.2822   288.9600     1.2353     0.5474
  905   18.080   3523.28     1.2525     0.0150     0.7982     0.1808     1.5996     1.2267   289.2800     1.3103     0.4940
  906   18.100   3524.28     1.3844     0.0165     0.6950     0.1810     1.6874     1.2012   289.6000     1.3978     0.3869
  907   18.120   3525.30     1.1446     0.0187     0.6899     0.1812     1.4313     1.6199   289.9200     1.1413     0.4392
  908   18.140   3526.33     1.1253     0.0107     0.7195     0.1814     1.4245     0.9492   290.2400     1.1343     0.4683
  909   18.160   3527.31     1.0506     0.0107     0.7403     0.1816     1.3582     1.0095   290.5600     1.0677     0.5161
  910   18.180   3528.30     0.9660     0.0174     0.7581     0.1818     1.2824     1.7847   290.8800     0.9915     0.5769
  911   18.200   3529.27     0.9485     0.0172     0.7720     0.1820     1.2723     1.8192   291.2000     0.9811     0.6004
  912   18.220   3530.26     1.5144     0.0162     0.7245     0.1822     1.8272     1.1382   291.5200     1.5356     0.3730
  913   18.240   3531.32     2.5230     0.0185     0.6643     0.1824     2.8247     0.7449   291.8400     2.5329     0.2116
  914   18.260   3532.30     3.0934     0.0219     0.6322     0.1826     3.3480     0.7025   292.1600     3.0559     0.1387
  915   18.280   3533.30     1.9569     0.0195     0.6011     0.1828     2.2063     0.9755   292.4800     1.9138     0.2142
  916   18.300   3534.31     1.4669     0.0154     0.7352     0.1830     1.7515     1.0463   292.8000     1.4587     0.3390
  917   18.320   3535.32     1.3070     0.0020     0.8594     0.1832     1.6549     0.1578   293.1200     1.3617     0.4735
  918   18.340   3536.30     1.2564     0.0069     0.9115     0.1834     1.6350     0.5260   293.4400     1.3415     0.5356
  919   18.360   3537.28     1.2942     0.0439     0.9009     0.1836     1.6751     3.5715   293.7600     1.3813     0.5242
  920   18.380   3538.27     1.7933     0.0559     0.7286     0.1838     2.1326     3.6909   294.0800     1.8385     0.3425
  921   18.400   3539.32     2.6042     0.0442     0.5996     0.1840     2.8710     2.2304   294.4000     2.5766     0.1808
  922   18.420   3540.35     3.8461     0.0357     0.5044     0.1842     4.0719     0.9666   294.7200     3.7771     0.0940
  923   18.440   3541.38     5.1658     0.0348     0.5194     0.1844     5.3772     0.6777   295.0400     5.0822     0.0628
  924   18.460   3542.39     5.0766     0.0328     0.5280     0.1846     5.3127     0.6473   295.3600     5.0174     0.0753
  925   18.480   3543.40     5.0397     0.0296     0.4977     0.1848     5.2456     0.5900   295.6800     4.9499     0.0617
  926   18.500   3544.45     4.1773     0.0310     0.5106     0.1850     4.3836     0.7300   296.0000     4.0876     0.0751
  927   18.520   3545.45     1.7928     0.0303     0.5573     0.1852     2.0158     1.5732   296.3200     1.7195     0.2014
  928   18.540   3546.43     1.3628     0.0269     0.6470     0.1854     1.6070     1.9602   296.6400     1.3104     0.3023
  929   18.560   3547.44     1.1673     0.0206     0.7488     0.1856     1.4725     1.7524   296.9600     1.1755     0.4604
  930   18.580   3548.43     1.1662     0.0144     0.7900     0.1858     1.4930     1.2346   297.2800     1.1957     0.4955
  931   18.600   3549.51     1.2046     0.0151     0.8178     0.1860     1.5448     1.2605   297.6000     1.2472     0.5003
  932   18.620   3550.49     1.2547     0.0151     0.8295     0.1862     1.6022     1.2083   297.9200     1.3043     0.4916
  933   18.640   3551.44     1.3393     0.0146     0.8290     0.1864     1.6885     1.0927   298.2400     1.3903     0.4640
  934   18.660   3552.44     1.3537     0.0144     0.8106     0.1866     1.6945     1.0616   298.5600     1.3959     0.4476
  935   18.680   3553.48     1.3284     0.0148     0.7891     0.1868     1.6594     1.1087   298.8800     1.3606     0.4421
  936   18.700   3554.48     1.2681     0.0148     0.7844     0.1870     1.5899     1.1579   299.2000     1.2907     0.4488
  937   18.720   3555.45     1.2447     0.0153     0.8283     0.1872     1.5871     1.2316   299.5200     1.2876     0.4878
  938   18.740   3556.45     1.2489     0.0141     0.8532     0.1874     1.6052     1.1326   299.8400     1.3053     0.5063
  939   18.760   3557.47     1.2487     0.0130     0.8521     0.1876     1.6124     1.0390   300.1600     1.3122     0.5168
  940   18.780   3558.49     1.2204     0.0133     0.8725     0.1878     1.5849     1.0924   300.4800     1.2845     0.5296
  941   18.800   3559.46     1.2160     0.0137     0.8806     0.1880     1.5841     1.1274   300.8000     1.2833     0.5364
  942   18.820   3560.47     1.2125     0.0136     0.8893     0.1882     1.5853     1.1233   301.1200     1.2842     0.5448
  943   18.840   3561.50     1.2554     0.0131     0.8946     0.1884     1.6303     1.0477   301.4400     1.3288     0.5299
  944   18.860   3562.48     1.2874     0.0130     0.8658     0.1886     1.6576     1.0082   301.7600     1.3558     0.5109
  945   18.880   3563.50     1.3172     0.0127     0.8020     0.1888     1.6580     0.9637   302.0800     1.3559     0.4592
  946   18.900   3564.49     1.3032     0.0122     0.7686     0.1890     1.6241     0.9421   302.4000     1.3217     0.4350
  947   18.920   3565.49     1.3311     0.0127     0.7846     0.1892     1.6589     0.9696   302.7200     1.3561     0.4360
  948   18.940   3566.49     1.3793     0.0104     0.7872     0.1894     1.7100     0.7653   303.0400     1.4070     0.4250
  949   18.960   3567.54     1.4023     0.0100     0.7891     0.1896     1.7326     0.7232   303.3600     1.4292     0.4175
  950   18.980   3568.56     1.4256     0.0120     0.7815     0.1898     1.7547     0.8446   303.6800     1.4510     0.4093
  951   19.000   3569.56     1.5576     0.0116     0.7890     0.1900     1.8868     0.7760   304.0000     1.5828     0.3755
  952   19.020   3570.59     1.9262     0.0173     0.7459     0.1902     2.2454     0.9240   304.3200     1.9411     0.2949
  953   19.040   3571.60     2.5249     0.0233     0.6217     0.1904     2.8081     0.9442   304.6400     2.5034     0.1943
  954   19.060   3572.63     2.9986     0.0377     0.4859     0.1906     3.2241     1.2716   304.9600     2.9192     0.1190
  955   19.080   3573.61     3.1388     0.0380     0.3409     0.1908     3.2999     1.2120   305.2800     2.9947     0.0643
  956   19.100   3574.63     2.9799     0.0381     0.3090     0.1910     3.1118     1.2577   305.6000     2.8062     0.0439
  957   19.120   3575.61     2.4683     0.0374     0.3084     0.1912     2.5977     1.4880   305.9200     2.2918     0.0512
  958   19.140   3576.62     1.9558     0.0373     0.3534     0.1914     2.1010     1.8660   306.2400     1.7948     0.0866
  959   19.160   3577.64     1.5573     0.0340     0.3714     0.1916     1.7080     2.1380   306.5600     1.4015     0.1198
  960   19.180   3578.62     1.3571     0.0262     0.4161     0.1918     1.5259     1.9175   306.8800     1.2190     0.1726
  961   19.200   3579.62     1.2942     0.0162     0.4480     0.1920     1.4767     1.2476   307.2000     1.1695     0.2075
  962   19.220   3580.61     1.2949     0.0122     0.4766     0.1922     1.4917     0.9412   307.5200     1.1842     0.2333
  963   19.240   3581.58     1.2959     0.0134     0.5027     0.1924     1.5035     1.0310   307.8400     1.1957     0.2525
  964   19.260   3582.60     1.3157     0.0164     0.5251     0.1926     1.5329     1.2511   308.1600     1.2248     0.2651
  965   19.280   3583.60     1.3611     0.0195     0.5499     0.1928     1.5885     1.4525   308.4800     1.2800     0.2724
  966   19.300   3584.62     1.4891     0.0262     0.5748     0.1930     1.7277     1.7985   308.8000     1.4189     0.2645
  967   19.320   3585.71     1.7758     0.0283     0.5779     0.1932     2.0185     1.6098   309.1200     1.7094     0.2256
  968   19.340   3586.71     2.2159     0.0236     0.5744     0.1934     2.4604     1.1999   309.4400     2.1510     0.1814
  969   19.360   3587.68     2.8878     0.0235     0.4522     0.1936     3.1017     0.9292   309.7600     2.7920     0.1147
  970   19.380   3588.68     3.8295     0.0346     0.2569     0.1938     3.9629     1.0262   310.0800     3.6528     0.0347
  971   19.400   3589.70     4.7479     0.0603     0.1376     0.1940     4.8187     1.3809   310.4000     4.5083    -0.0054
  972   19.420   3590.77     5.2286     0.0974     0.0892     0.1942     5.2714     1.8703   310.7200     4.9607    -0.0186
  973   19.440   3591.81     4.9073     0.1018     0.0795     0.1944     4.9420     2.0517   311.0400     4.6310    -0.0242
  974   19.460   3592.80     4.0576     0.0998     0.0753     0.1946     4.0895     2.4248   311.3600     3.7781    -0.0315
  975   19.480   3593.83     3.1125     0.0928     0.0797     0.1948     3.1442     2.9463   311.6800     2.8326    -0.0423
  976   19.500   3594.84     2.4495     0.0841     0.1503     0.1950     2.4984     3.4034   312.0000     2.1864    -0.0357
  977   19.520   3595.81     1.8066     0.0691     0.1646     0.1952     1.8752     3.7159   312.3200     1.5629    -0.0209
  978   19.540   3596.83     1.5296     0.0484     0.2242     0.1954     1.6133     3.1346   312.6400     1.3007     0.0031
  979   19.560   3597.86     1.5657     0.0269     0.2922     0.1956     1.6782     1.7353   312.9600     1.3652     0.0529
  980   19.580   3598.86     1.6271     0.0150     0.3654     0.1958     1.7713     0.9208   313.2800     1.4580     0.1012
  981   19.600   3599.87     1.5368     0.0123     0.3766     0.1960     1.6936     0.7916   313.6000     1.3800     0.1285
  982   19.620   3600.85     1.4064     0.0150     0.4180     0.1962     1.5752     1.0635   313.9200     1.2613     0.1632
  983   19.640   3601.88     1.3988     0.0169     0.4637     0.1964     1.5876     1.2082   314.2400     1.2734     0.1987
  984   19.660   3602.86     1.4335     0.0168     0.4982     0.1966     1.6380     1.1735   314.5600     1.3235     0.2193
  985   19.680   3603.84     1.7042     0.0146     0.5183     0.1968     1.9202     0.8672   314.8800     1.6054     0.1982
  986   19.700   3604.89     2.1703     0.0157     0.5102     0.1970     2.3868     0.7334   315.2000     2.0716     0.1540
  987   19.720   3605.85     2.7748     0.0232     0.4728     0.1972     2.9815     0.8239   315.5200     2.6659     0.1110
  988   19.740   3606.87     3.4071     0.0313     0.4259     0.1974     3.5919     0.9343   315.8400     3.2760     0.0741
  989   19.760   3607.90     3.9051     0.0317     0.3836     0.1976     4.0717     0.8266   316.1600     3.7555     0.0531
  990   19.780   3608.92     4.3205     0.0354     0.3563     0.1978     4.4708     0.8307   316.4800     4.1543     0.0385
  991   19.800   3609.90     4.4476     0.0443     0.3518     0.1980     4.5966     0.9973   316.8000     4.2798     0.0366
  992   19.820   3623.92     4.4486     0.0473     0.2726     0.1982     4.5762     1.0617   317.1200     4.2591     0.0246
  993   19.840   3649.96     4.4354     0.0536     0.1821     0.1984     4.5249     1.2034   317.4400     4.2075     0.0033
  994   19.860   3665.36     4.2342     0.0550     0.1762     0.1986     4.3056     1.2870   317.7600     3.9879    -0.0072
  995   19.880   3666.35     3.8858     0.0535     0.1985     0.1988     3.9651     1.3344   318.0800     3.6470    -0.0027
  996   19.900   3667.39     3.6719     0.0511     0.2298     0.1990     3.7637     1.3838   318.4000     3.4453     0.0057
  997   19.920   3668.40     3.5376     0.0454     0.2553     0.1992     3.6416     1.2588   318.7200     3.3229     0.0146
  998   19.940   3669.38     3.5122     0.0436     0.2623     0.1994     3.6227     1.2514   319.0400     3.3037     0.0193
  999   19.960   3670.41     3.8408     0.0461     0.2578     0.1996     3.9478     1.2592   319.3600     3.6285     0.0153
 1000   19.980   3671.43     4.4977     0.0421     0.2517     0.1998     4.6071     0.9960   319.6800     4.2874     0.0141
 1001   20.000   3672.52     5.2619     0.0359     0.2242     0.2000     5.3575     0.7230   320.0000     5.0375     0.0055
 1002   20.020   3673.54     6.2920     0.0360     0.1855     0.2002     6.3777     0.6100   320.3200     6.0574     0.0007
 1003   20.040   3674.57     7.4943     0.0398     0.0998     0.2004     7.5478     0.5677   320.6400     7.2272    -0.0100
 1004   20.060   3675.60     8.5087     0.0411     0.0092     0.2006     8.5217     0.5015   320.9600     8.2008    -0.0206
 1005   20.080   3676.62     9.1730     0.0457    -0.0300     0.2008     9.1637     0.5103   321.2800     8.8425    -0.0252
 1006   20.100   3677.68     9.6153     0.0519    -0.0335     0.2010     9.6012     0.5487   321.6000     9.2796    -0.0253
 1007   20.120   3678.72    10.0213     0.0573    -0.0306     0.2012    10.0079     0.5826   321.9200     9.6860    -0.0241
 1008   20.140   3679.79    10.4830     0.0663    -0.0321     0.2014    10.4697     0.6427   322.2400    10.1475    -0.0230
 1009   20.160   3680.86    10.6183     0.0766    -0.0401     0.2016    10.6036     0.7232   322.5600    10.2810    -0.0230
 1010   20.180   3681.85    10.0840     0.0895    -0.0434     0.2018    10.0656     0.8633   322.8800     9.7427    -0.0252
 1011   20.200   3682.86     9.3345     0.1004    -0.0388     0.2020     9.3180     1.0652   323.2000     8.9948    -0.0268
 1012   20.220   3683.87     8.3254     0.1059    -0.0412     0.2022     8.3085     1.2072   323.5200     7.9850    -0.0304
 1013   20.240   3684.93     7.2192     0.1184    -0.0401     0.2024     7.2019     1.6300   323.8400     6.8781    -0.0354
 1014   20.260   3685.93     6.2019     0.1335    -0.0359     0.2026     6.1859     2.1404   324.1600     5.8618    -0.0411
 1015   20.280   3686.98     5.3495     0.1273    -0.0272     0.2028     5.3366     2.3675   324.4800     5.0121    -0.0466
 1016   20.300   3687.97     4.7815     0.1030    -0.0140     0.2030     4.7732     2.0316   324.8000     4.4484    -0.0501
 1017   20.320   3688.97     4.2776     0.0798     0.0167     0.2032     4.2788     1.8488   325.1200     3.9537    -0.0506
 1018   20.340   3689.98     3.7733     0.0539     0.0418     0.2034     3.7876     1.3446   325.4400     3.4621    -0.0490
 1019   20.360   3691.00     3.2317     0.0510     0.0383     0.2036     3.2507     1.5723   325.7600     2.9250    -0.0542
 1020   20.380   3692.00     3.0329     0.0472     0.0505     0.2038     3.0506     1.5541   326.0800     2.7245    -0.0593
 1021   20.400   3693.01     2.8453     0.0411     0.0662     0.2040     2.8712     1.4365   326.4000     2.5448    -0.0560
 1022   20.420   3694.05     2.4937     0.0285     0.0751     0.2042     2.5237     1.1280   326.7200     2.1970    -0.0604
 1023   20.440   3695.06     2.2065     0.0234     0.0883     0.2044     2.2413     1.0593   327.0400     1.9143    -0.0634
 1024   20.460   3696.09     2.1825     0.0261     0.1069     0.2046     2.2245     1.1988   327.3600     1.8971    -0.0552
 1025   20.480   3697.07     2.3194     0.0272     0.1234     0.2048     2.3687     1.1739   327.6800     2.0410    -0.0428
 1026   20.500   3698.07     2.3608     0.0240     0.1383     0.2050     2.4166     1.0199   328.0000     2.0886    -0.0345
 1027   20.520   3699.07     2.4104     0.0188     0.1588     0.2052     2.4747     0.7868   328.3200     2.1464    -0.0243
 1028   20.540   3700.09     2.7247     0.0180     0.1694     0.2054     2.7943     0.6679   328.6400     2.4657    -0.0162
 1029   20.560   3701.10     3.3647     0.0221     0.1782     0.2056     3.4383     0.6652   328.9600     3.1094    -0.0098
 1030   20.580   3702.14     3.8681     0.0271     0.1917     0.2058     3.9463     0.7025   329.2800     3.6170    -0.0054
 1031   20.600   3703.18     3.8356     0.0232     0.2000     0.2060     3.9188     0.6006   329.6000     3.5892    -0.0022
 1032   20.620   3704.20     3.2785     0.0231     0.2035     0.2062     3.3636     0.6913   329.9200     3.0337    -0.0012
 1033   20.640   3705.19     2.5428     0.0255     0.2067     0.2064     2.6290     0.9715   330.2400     2.2988    -0.0005
 1034   20.660   3706.17     1.9439     0.0248     0.2272     0.2066     2.0353     1.2460   330.5600     1.7048     0.0068
 1035   20.680   3707.20     1.6973     0.0242     0.2523     0.2068     1.7996     1.4167   330.8800     1.4687     0.0251
 1036   20.700   3708.16     1.6582     0.0235     0.2711     0.2070     1.7693     1.4163   331.2000     1.4381     0.0400
 1037   20.720   3709.19     1.6516     0.0241     0.2921     0.2072     1.7713     1.4571   331.5200     1.4398     0.0541
 1038   20.740   3710.18     1.6673     0.0241     0.3096     0.2074     1.7950     1.4473   331.8400     1.4632     0.0660
 1039   20.760   3711.19     1.7672     0.0229     0.3252     0.2076     1.9017     1.3070   332.1600     1.5695     0.0717
 1040   20.780   3712.17     1.8840     0.0241     0.3375     0.2078     2.0239     1.2810   332.4800     1.6914     0.0740
 1041   20.800   3713.18     1.9800     0.0255     0.3477     0.2080     2.1245     1.2885   332.8000     1.7917     0.0760
 1042   20.820   3714.20     1.9656     0.0303     0.3579     0.2082     2.1145     1.5356   333.1200     1.7813     0.0822
 1043   20.840   3715.16     1.8227     0.0346     0.3705     0.2084     1.9761     1.8540   333.4400     1.6427     0.0956
 1044   20.860   3716.19     1.6791     0.0395     0.3856     0.2086     1.8386     2.3483   333.7600     1.5049     0.1138
 1045   20.880   3717.19     1.7413     0.0446     0.3995     0.2088     1.9077     2.5780   334.0800     1.5736     0.1190
 1046   20.900   3718.22     1.8821     0.0476     0.4068     0.2090     2.0519     2.5420   334.4000     1.7175     0.1138
 1047   20.920   3719.23     1.9675     0.0458     0.4149     0.2092     2.1405     2.3604   334.7200     1.8058     0.1122
 1048   20.940   3720.23     2.0406     0.0435     0.4238     0.2094     2.2172     2.1386   335.0400     1.8822     0.1122
 1049   20.960   3721.23     2.1574     0.0401     0.4304     0.2096     2.3375     1.8874   335.3600     2.0021     0.1095
 1050   20.980   3722.26     2.3048     0.0383     0.4313     0.2098     2.4859     1.6703   335.6800     2.1503     0.1030
 1051   21.000   3723.25     2.5332     0.0407     0.4255     0.2100     2.7133     1.6514   336.0000     2.3773     0.0920
 1052   21.020   3724.27     2.7163     0.0373     0.4288     0.2102     2.8951     1.3938   336.3200     2.5588     0.0842
 1053   21.040   3725.30     2.7270     0.0363     0.4336     0.2104     2.9092     1.3242   336.6400     2.5726     0.0869
 1054   21.060   3726.29     2.6895     0.0357     0.4330     0.2106     2.8707     1.3248   336.9600     2.5337     0.0872
 1055   21.080   3727.34     2.7391     0.0343     0.4449     0.2108     2.9238     1.2546   337.2800     2.5865     0.0885
 1056   21.100   3728.32     2.8638     0.0339     0.4549     0.2110     3.0541     1.2130   337.6000     2.7165     0.0891
 1057   21.120   3729.34     2.9795     0.0368     0.4611     0.2112     3.1720     1.2471   337.9200     2.8341     0.0872
 1058   21.140   3730.35     2.9718     0.0396     0.4673     0.2114     3.1668     1.3335   338.2400     2.8285     0.0893
 1059   21.160   3731.38     2.9606     0.0438     0.4756     0.2116     3.1591     1.4800   338.5600     2.8205     0.0925
 1060   21.180   3732.41     3.0677     0.0518     0.4881     0.2118     3.2705     1.7310   338.8800     2.9317     0.0925
 1061   21.200   3733.46     3.5906     0.0610     0.5103     0.2120     3.8025     1.8441   339.2000     3.4633     0.0845
 1062   21.220   3734.44     4.5193     0.0716     0.5214     0.2122     4.7379     1.7296   339.5200     4.3984     0.0701
 1063   21.240   3735.49     5.6279     0.0964     0.4672     0.2124     5.8350     1.8285   339.8400     5.4952     0.0512
 1064   21.260   3736.47     6.5185     0.1216     0.4104     0.2126     6.6997     1.9296   340.1600     6.3596     0.0344
 1065   21.280   3737.50     7.3746     0.1473     0.3243     0.2128     7.5249     2.0674   340.4800     7.1844     0.0203
 1066   21.300   3738.61     8.8074     0.1770     0.2767     0.2130     8.9288     2.1399   340.8000     8.5880     0.0089
 1067   21.320   3739.68    10.8963     0.1968     0.2161     0.2132    10.9983     1.8894   341.1200    10.6572     0.0029
 1068   21.340   3740.74    12.2175     0.2141     0.0489     0.2134    12.2676     1.7708   341.4400    11.9261    -0.0079
 1069   21.360   3741.78    11.7723     0.2282    -0.1507     0.2136    11.7327     1.8954   341.7600    11.3909    -0.0271
 1070   21.380   3742.84    10.9842     0.2243    -0.2201     0.2138    10.8965     2.0163   342.0800    10.5545    -0.0400
 1071   21.400   3743.91    10.8602     0.2162    -0.2331     0.2140    10.7629     1.9960   342.4000    10.4205    -0.0428
 1072   21.420   3745.00    11.0930     0.2123    -0.2393     0.2142    10.9935     1.9289   342.7200    10.6508    -0.0424
 1073   21.440   3746.07    11.0430     0.2114    -0.2474     0.2144    10.9404     1.8981   343.0400    10.5974    -0.0433
 1074   21.460   3747.10    10.2427     0.1857    -0.2605     0.2146    10.1352     1.7729   343.3600     9.7918    -0.0481
 1075   21.480   3748.17     9.1457     0.1520    -0.2769     0.2148     9.0314     1.6242   343.6800     8.6878    -0.0561
 1076   21.500   3749.20     8.3732     0.1142    -0.2794     0.2150     8.2558     1.3491   344.0000     7.9118    -0.0625
 1077   21.520   3750.24     8.3065     0.0879    -0.2741     0.2152     8.1906     1.0668   344.3200     7.8463    -0.0626
 1078   21.540   3751.33     9.0239     0.0812    -0.2708     0.2154     8.9099     0.9234   344.6400     8.5652    -0.0569
 1079   21.560   3752.42     9.9097     0.0878    -0.2716     0.2156     9.7960     0.9057   344.9600     9.4510    -0.0515
 1080   21.580   3753.53    10.6383     0.0963    -0.2738     0.2158    10.5235     0.9212   345.2800    10.1783    -0.0481
 1081   21.600   3754.56    10.9928     0.1019    -0.2741     0.2160    10.8777     0.9328   345.6000    10.5321    -0.0465
 1082   21.620   3755.63    11.1709     0.1094    -0.2734     0.2162    11.0560     0.9822   345.9200    10.7100    -0.0457
 1083   21.640   3756.69    11.2337     0.1139    -0.2727     0.2164    11.1192     1.0157   346.2400    10.7729    -0.0454
 1084   21.660   3757.72    11.3225     0.1250    -0.2718     0.2166    11.2083     1.1050   346.5600    10.8617    -0.0450
 1085   21.680   3758.76    11.3989     0.1362    -0.2702     0.2168    11.2851     1.1957   346.8800    10.9383    -0.0446
 1086   21.700   3759.86    11.5030     0.1424    -0.2682     0.2170    11.3901     1.2388   347.2000    11.0429    -0.0440
 1087   21.720   3760.92    11.5344     0.1467    -0.2665     0.2172    11.4222     1.2728   347.5200    11.0747    -0.0437
 1088   21.740   3762.03    11.5744     0.1503    -0.2642     0.2174    11.4631     1.3005   347.8400    11.1153    -0.0434
 1089   21.760   3773.80    11.6693     0.1519    -0.1766     0.2176    11.5814     1.3043   348.1600    11.2333    -0.0380
 1090   21.780   3793.20    11.7088     0.1543    -0.0825     0.2178    11.6605     1.3250   348.4800    11.3121    -0.0295
 1091   21.800   3807.26    11.7332     0.1558    -0.0429     0.2180    11.7139     1.3279   348.8000    11.3651    -0.0232
 1092   21.820   3808.32    11.7412     0.1557    -0.0363     0.2182    11.7250     1.3262   349.1200    11.3759    -0.0226
 1093   21.840   3809.41    11.7565     0.1593    -0.0283     0.2184    11.7432     1.3550   349.4400    11.3938    -0.0219
 1094   21.860   3810.47    11.7627     0.1603    -0.0200     0.2186    11.7531     1.3636   349.7600    11.4033    -0.0212
 1095   21.880   3811.60    11.7556     0.1623    -0.0107     0.2188    11.7496     1.3793   350.0800    11.3995    -0.0204
 1096   21.900   3812.65    11.7664     0.1633    -0.0028     0.2190    11.7638     1.3879   350.4000    11.4134    -0.0197
 1097   21.920   3813.75    11.7243     0.1621     0.0055     0.2192    11.7252     1.3819   350.7200    11.3745    -0.0191
 1098   21.940   3814.82    11.6828     0.1609     0.0139     0.2194    11.6875     1.3763   351.0400    11.3365    -0.0184
 1099   21.960   3815.89    11.6412     0.1603     0.0219     0.2196    11.6490     1.3760   351.3600    11.2976    -0.0178
 1100   21.980   3817.01    11.5486     0.1583     0.0316     0.2198    11.5612     1.3681   351.6800    11.2095    -0.0170
 1101   22.000   3818.11    11.4778     0.1588     0.0397     0.2200    11.4932     1.3822   352.0000    11.1412    -0.0165
 1102   22.020   3819.15    11.4501     0.1579     0.0478     0.2202    11.4688     1.3782   352.3200    11.1165    -0.0158
 1103   22.040   3820.27    11.4302     0.1566     0.0576     0.2204    11.4530     1.3691   352.6400    11.1004    -0.0150
 1104   22.060   3821.36    11.4870     0.1560     0.0654     0.2206    11.5135     1.3578   352.9600    11.1605    -0.0141
 1105   22.080   3822.40    11.5317     0.1543     0.0756     0.2208    11.5618     1.3390   353.2800    11.2085    -0.0133
 1106   22.100   3823.48    11.5660     0.1535     0.0839     0.2210    11.6000     1.3277   353.6000    11.2464    -0.0124
 1107   22.120   3824.55    11.5943     0.1530     0.0931     0.2212    11.6321     1.3214   353.9200    11.2782    -0.0116
 1108   22.140   3825.67    11.6629     0.1519     0.1032     0.2214    11.7051     1.3038   354.2400    11.3509    -0.0107
 1109   22.160   3826.76    11.7888     0.1526     0.1122     0.2216    11.8346     1.2956   354.5600    11.4801    -0.0098
 1110   22.180   3827.81    11.9015                0.1206     0.2218    11.9510              354.8800    11.5961    -0.0090
 1111   22.200   3828.89    12.0457                0.1297     0.2220    12.0990              355.2000    11.7438    -0.0081
 1112   22.220   3829.99    12.2640                0.1383     0.2222    12.3208              355.5200    11.9652    -0.0073
 1113   22.240   3831.06    12.5122                0.1475     0.2224    12.5724              355.8400    12.2165    -0.0065
 1114   22.260   3832.20    12.7895                0.1547     0.2226    12.8532              356.1600    12.4970    -0.0057
 1115   22.280   3833.72    13.1181                           0.2228    13.1865              356.4800    12.8301    -0.0047
 
 
