

 Program UNIPLOT                         version 05.36.02
 _______________
 (c) Fugro Netherlands Marine, Nootdorp, The Netherlands


 ASCII representation of data plotted on a graph.

 This ASCII file presents data interpolated to values per fixed depth interval.
 The data are corrected for the depth-offset differences between the various 
 transducers in the penetrometer.

 The records at the start of penetration may include no values or anomalous
 values where a depth offset implies incomplete penetration of a particular
 sensor into the ground.

 The records at the end of penetration may include no values for data channels
 where the transducer did not reach this depth.

 The reference level for test values is (1) the ground surface for onshore tests and (2) the seafloor for nearshore and offshore tests.

 UNICAS data file          : CPT-2009.000                            
 Output using command file : PlotASCII.cmd

 ASCII file created at : date          :14-Jul-2022
                         time          :13:57:26
 Project number                        :20024805                                                                                            
 Date of testing                       :12-Jul-2022                                                                                         
 Location                              :Hong Kong Offshore Wind Farm Project                                                                
 Test name                             :CPT-2009
 Penetrometer                          :F7.5CKE2HAW2/B/3285
 Serial no                             :1701-3285

 Table description:
 Column ID                             :Parameter name
 ___________________________________________________________________________________
 Rec                                   :Record ID, Record ID [-]
 Depth                                 :Depth, Depth [m]
 Time                                  :Time, Time [s]
 Cone                                  :Cone Resistance, Cone Resistance [MPa]
 Friction                              :Sleeve Friction, Sleeve Friction [MPa]
 Pore 2                                :Porewater Pressure, Porewater Pressure at Shoulder [MPa]
 HydroPress                            :Hydrostatic Pressure, Hydrostatic Pressure [MPa]
 qt                                    :Total Cone Resistance, Total Cone Resistance [MPa]
 Fric_ratio                            :Friction Ratio, Friction Ratio [%]
 SigmaVert                             :Vertical stress, Vertical stress [kPa] as specified in ground model
 Qnet                                  :Net Cone Resistance, Net Cone Resistance [MPa], unit weight as specified in ground model
 Bq                                    :Porewater Pressure Ratio, Porewater Pressure Ratio [-], unit weight as specified in ground model


 Data table:
  Rec    Depth      Time       Cone   Friction     Pore 2 HydroPress         qt Fric_ratio  SigmaVert       Qnet         Bq
   No        m         s        MPa        MPa        MPa        MPa        MPa          %        kPa        MPa          -
    1    0.000   1956.59     0.0000                           0.0000     0.0000                0.0000     0.0000           
    2    0.020   1957.65     0.0048                0.0003     0.0002     0.0049                0.3200     0.0046     0.0024
    3    0.040   1958.69     0.0066                0.0006     0.0004     0.0068                0.6400     0.0062     0.0335
    4    0.060   1959.67     0.0077     0.0000     0.0005     0.0006     0.0079     0.2965     0.9600     0.0069    -0.0336
    5    0.080   1960.68     0.0075     0.0005     0.0008     0.0008     0.0078     6.8327     1.2800     0.0065    -0.0147
    6    0.100   1961.67     0.0082     0.0002     0.0008     0.0010     0.0085     1.8571     1.6000     0.0069    -0.0475
    7    0.120   1962.72     0.0064     0.0001     0.0009     0.0012     0.0067     1.9158     1.9200     0.0048    -0.0944
    8    0.140   1963.72     0.0091     0.0005     0.0010     0.0014     0.0095     5.3654     2.2400     0.0072    -0.0577
    9    0.160   1964.73     0.0074     0.0002     0.0012     0.0016     0.0079     3.7059     2.5600     0.0053    -0.1201
   10    0.180   1965.77     0.0058     0.0003     0.0017     0.0018     0.0065     5.5187     2.8800     0.0036    -0.1144
   11    0.200   1966.78     0.0101     0.0004     0.0022     0.0020     0.0110     5.0563     3.2000     0.0078     0.0046
   12    0.220   1967.78     0.0129     0.0005     0.0022     0.0022     0.0138     4.5938     3.5200     0.0103     0.0021
   13    0.240   1968.75     0.0121     0.0003     0.0028     0.0024     0.0131     2.2444     3.8400     0.0093     0.0009
   14    0.260   1969.78     0.0186     0.0009     0.0029     0.0026     0.0198     5.1181     4.1600     0.0157     0.0290
   15    0.280   1970.82     0.0207     0.0008     0.0022     0.0028     0.0218     4.4291     4.4800     0.0173    -0.0077
   16    0.300   1973.43     0.0228     0.0011     0.0007     0.0030     0.0233     4.7230     4.8000     0.0185    -0.1012
   17    0.320   1976.79     0.0231     0.0012    -0.0009     0.0032     0.0230     5.4648     5.1200     0.0179    -0.2039
   18    0.340   1980.11     0.0235     0.0012    -0.0011     0.0034     0.0228     4.9714     5.4400     0.0173    -0.3021
   19    0.360   1981.07     0.0225     0.0011     0.0017     0.0036     0.0228     4.5839     5.7600     0.0170    -0.1741
   20    0.380   1982.08     0.0229     0.0011     0.0018     0.0038     0.0232     4.7996     6.0800     0.0171    -0.1886
   21    0.400   1983.09     0.0230     0.0011     0.0043     0.0040     0.0246     5.0410     6.4000     0.0182    -0.0106
   22    0.420   1984.18     0.0229     0.0016     0.0046     0.0042     0.0250     6.8424     6.7200     0.0183     0.0411
   23    0.440   1985.14     0.0254     0.0016     0.0044     0.0044     0.0277     6.3850     7.0400     0.0206     0.0420
   24    0.460   1986.09     0.0291     0.0015     0.0034     0.0046     0.0307     4.9954     7.3600     0.0234    -0.0337
   25    0.480   1987.10     0.0292     0.0015    -0.0008     0.0048     0.0295     5.2557     7.6800     0.0218    -0.1859
   26    0.500   1988.14     0.0277     0.0015    -0.0028     0.0050     0.0263     5.2314     8.0000     0.0183    -0.4660
   27    0.520   1989.19     0.0266     0.0016     0.0025     0.0052     0.0270     6.1348     8.3200     0.0187    -0.2137
   28    0.540   1990.20     0.0275     0.0018     0.0038     0.0054     0.0290     6.6225     8.6400     0.0203    -0.0889
   29    0.560   1991.17     0.0276     0.0018     0.0042     0.0056     0.0293     6.6838     8.9600     0.0203    -0.0776
   30    0.580   1992.16     0.0276     0.0017    -0.0023     0.0058     0.0295     6.2917     9.2800     0.0202    -0.0566
   31    0.600   1993.16     0.0292     0.0017     0.0056     0.0060     0.0312     5.7635     9.6000     0.0216    -0.0587
   32    0.620   1994.22     0.0269     0.0014     0.0056     0.0062     0.0292     5.0728     9.9200     0.0193    -0.0385
   33    0.640   1995.30     0.0266     0.0019     0.0090     0.0064     0.0299     6.9339    10.2400     0.0197     0.0772
   34    0.660   1996.31     0.0267     0.0016     0.0108     0.0066     0.0311     6.2087    10.5600     0.0205     0.1928
   35    0.680   1997.32     0.0290     0.0015     0.0100     0.0068     0.0334     5.1711    10.8800     0.0225     0.1608
   36    0.700   1998.33     0.0305     0.0015     0.0092     0.0070     0.0344     4.9730    11.2000     0.0232     0.1010
   37    0.720   1999.28     0.0341     0.0018     0.0087     0.0072     0.0377     5.5140    11.5200     0.0262     0.0611
   38    0.740   2000.24     0.0336     0.0020     0.0089     0.0074     0.0373     5.9297    11.8400     0.0255     0.0560
   39    0.760   2001.56     0.0329     0.0026     0.0091     0.0076     0.0367     7.9759    12.1600     0.0245     0.0520
   40    0.780   2004.31     0.0347     0.0025     0.0096     0.0078     0.0386     7.7937    12.4800     0.0262     0.0623
   41    0.800   2007.07     0.0364     0.0024     0.0101     0.0080     0.0406     6.5702    12.8000     0.0278     0.0725
   42    0.820   2024.69     0.0352     0.0022     0.0102     0.0082     0.0395     6.0605    13.1200     0.0264     0.0763
   43    0.840   2063.04     0.0336     0.0023     0.0103     0.0084     0.0380     6.2687    13.4400     0.0245     0.0777
   44    0.860   2084.03     0.0307     0.0022     0.0125     0.0086     0.0356     7.1500    13.7600     0.0218     0.1366
   45    0.880   2085.07     0.0301     0.0019     0.0142     0.0088     0.0358     6.3664    14.0800     0.0217     0.2120
   46    0.900   2086.10     0.0290     0.0019     0.0147     0.0090     0.0350     6.6367    14.4000     0.0206     0.2652
   47    0.920   2087.11     0.0313     0.0020     0.0151     0.0092     0.0375     6.3946    14.7200     0.0228     0.2466
   48    0.940   2088.15     0.0275     0.0018     0.0152     0.0094     0.0339     6.3780    15.0400     0.0189     0.3139
   49    0.960   2089.11     0.0326     0.0022     0.0155     0.0096     0.0388     6.6184    15.3600     0.0235     0.2236
   50    0.980   2090.17     0.0337     0.0022     0.0158     0.0098     0.0403     6.3966    15.6800     0.0246     0.2415
   51    1.000   2091.13     0.0309     0.0023     0.0164     0.0100     0.0378     7.3510    16.0000     0.0218     0.2986
   52    1.020   2092.19     0.0298     0.0020     0.0154     0.0102     0.0364     6.6933    16.3200     0.0201     0.2695
   53    1.040   2093.20     0.0303     0.0021     0.0148     0.0104     0.0365     6.8444    16.6400     0.0199     0.2217
   54    1.060   2094.17     0.0353     0.0024     0.0148     0.0106     0.0415     6.6653    16.9600     0.0245     0.1687
   55    1.080   2095.21     0.0324     0.0024     0.0173     0.0108     0.0392     7.2200    17.2800     0.0219     0.2465
   56    1.100   2096.22     0.0311     0.0021     0.0202     0.0110     0.0390     6.6412    17.6000     0.0214     0.3721
   57    1.120   2097.23     0.0345     0.0021     0.0203     0.0112     0.0429     6.0339    17.9200     0.0250     0.3498
   58    1.140   2098.23     0.0344     0.0021     0.0211     0.0114     0.0432     6.0485    18.2400     0.0250     0.3868
   59    1.160   2099.22     0.0341     0.0014     0.0196     0.0116     0.0424     4.1714    18.5600     0.0238     0.3452
   60    1.180   2100.23     0.0318     0.0019     0.0200     0.0118     0.0403     5.8650    18.8800     0.0214     0.3903
   61    1.200   2101.25     0.0351     0.0023     0.0201     0.0120     0.0435     7.2127    19.2000     0.0243     0.3433
   62    1.220   2102.28     0.0430     0.0022     0.0186     0.0122     0.0510     5.0328    19.5200     0.0315     0.2198
   63    1.240   2103.29     0.0423     0.0023     0.0184     0.0124     0.0500     5.3055    19.8400     0.0302     0.1942
   64    1.260   2104.27     0.0438     0.0023     0.0188     0.0126     0.0517     5.7170    20.1600     0.0315     0.2069
   65    1.280   2105.31     0.0478     0.0020     0.0169     0.0128     0.0552     4.4176    20.4800     0.0347     0.1411
   66    1.300   2106.27     0.0488     0.0022     0.0192     0.0130     0.0559     4.3131    20.8000     0.0351     0.1185
   67    1.320   2107.27     0.0408     0.0022     0.0209     0.0132     0.0497     5.4250    21.1200     0.0286     0.2795
   68    1.340   2108.25     0.0412     0.0025     0.0234     0.0134     0.0504     5.9606    21.4400     0.0290     0.2955
   69    1.360   2109.27     0.0435     0.0024     0.0237     0.0136     0.0534     5.3671    21.7600     0.0316     0.3175
   70    1.380   2110.25     0.0436     0.0023     0.0218     0.0138     0.0530     5.3064    22.0800     0.0309     0.2770
   71    1.400   2111.27     0.0444     0.0021     0.0227     0.0140     0.0538     4.6839    22.4000     0.0314     0.2675
   72    1.420   2112.28     0.0471     0.0022     0.0230     0.0142     0.0568     4.5737    22.7200     0.0340     0.2588
   73    1.440   2113.29     0.0450     0.0021     0.0237     0.0144     0.0548     4.6482    23.0400     0.0318     0.2853
   74    1.460   2114.28     0.0467     0.0023     0.0244     0.0146     0.0568     4.8647    23.3600     0.0334     0.2795
   75    1.480   2115.29     0.0457     0.0039     0.0249     0.0148     0.0561     8.6082    23.6800     0.0324     0.3089
   76    1.500   2116.32     0.0472     0.0054     0.0238     0.0150     0.0573    11.3693    24.0000     0.0333     0.2737
   77    1.520   2117.35     0.0470     0.0055     0.0241     0.0152     0.0572    11.6428    24.3200     0.0329     0.2778
   78    1.540   2118.34     0.0492     0.0058     0.0247     0.0154     0.0593    11.8524    24.6400     0.0346     0.2509
   79    1.560   2119.35     0.0622     0.0059     0.0287     0.0156     0.0735    11.5760    24.9600     0.0486     0.2446
   80    1.580   2120.38     0.0791     0.0053     0.0269     0.0158     0.0907     6.6591    25.2800     0.0654     0.1833
   81    1.600   2121.45     0.0795     0.0043     0.0255     0.0160     0.0906     5.6913    25.6000     0.0650     0.1664
   82    1.620   2122.46     0.0758     0.0043     0.0213     0.0162     0.0851     5.7127    25.9200     0.0592     0.1026
   83    1.640   2123.48     0.0717     0.0049     0.0201     0.0164     0.0802     6.5513    26.2400     0.0539     0.0690
   84    1.660   2124.49     0.0681     0.0041     0.0221     0.0166     0.0768     6.0360    26.5600     0.0503     0.0828
   85    1.680   2125.50     0.0599     0.0036     0.0215     0.0168     0.0697     5.9238    26.8800     0.0429     0.1549
   86    1.700   2126.50     0.0562     0.0035     0.0204     0.0170     0.0644     6.2657    27.2000     0.0372     0.0703
   87    1.720   2127.51     0.0587     0.0034     0.0299     0.0172     0.0688     5.7945    27.5200     0.0413     0.1624
   88    1.740   2128.57     0.0711     0.0030     0.0363     0.0174     0.0870     4.2674    27.8400     0.0592     0.3471
   89    1.760   2129.56     0.0660     0.0036     0.0282     0.0176     0.0782     5.4051    28.1600     0.0500     0.2292
   90    1.780   2130.57     0.0694     0.0038     0.0272     0.0178     0.0815     5.5513    28.4800     0.0530     0.2071
   91    1.800   2131.53     0.0657     0.0038     0.0307     0.0180     0.0773     5.8056    28.8000     0.0485     0.1967
   92    1.820   2132.57     0.0672     0.0038     0.0385     0.0182     0.0824     5.7248    29.1200     0.0533     0.3389
   93    1.840   2133.52     0.0729     0.0041     0.0425     0.0184     0.0906     5.7174    29.4400     0.0611     0.3889
   94    1.860   2134.55     0.0754     0.0044     0.0455     0.0186     0.0938     5.8479    29.7600     0.0641     0.3936
   95    1.880   2135.56     0.0745     0.0046     0.0475     0.0188     0.0946     6.2630    30.0800     0.0645     0.4515
   96    1.900   2136.57     0.0728     0.0051     0.0440     0.0190     0.0917     6.9962    30.4000     0.0613     0.4252
   97    1.920   2137.58     0.0683     0.0056     0.0438     0.0192     0.0866     7.8295    30.7200     0.0559     0.4342
   98    1.940   2138.59     0.0712     0.0056     0.0453     0.0194     0.0900     7.7222    31.0400     0.0590     0.4308
   99    1.960   2139.60     0.0730     0.0056     0.0481     0.0196     0.0928     7.6783    31.3600     0.0615     0.4490
  100    1.980   2140.73     0.0781     0.0057     0.0492     0.0198     0.0990     7.6355    31.6800     0.0673     0.4462
  101    2.000   2147.70     0.0794     0.0054     0.0473     0.0200     0.0995     6.9816    32.0000     0.0675     0.4137
  102    2.020   2154.67     0.0807     0.0052     0.0457     0.0202     0.1000     6.5555    32.3200     0.0677     0.3813
  103    2.040   2156.91     0.0819     0.0053     0.0458     0.0204     0.1013     6.4281    32.6400     0.0686     0.3746
  104    2.060   2157.94     0.0786     0.0053     0.0413     0.0206     0.0967     6.6126    32.9600     0.0638     0.3531
  105    2.080   2158.95     0.0770     0.0053     0.0427     0.0208     0.0944     6.7488    33.2800     0.0611     0.3362
  106    2.100   2159.94     0.0821     0.0052     0.0452     0.0210     0.1009     6.4038    33.6000     0.0673     0.3556
  107    2.120   2160.98     0.0785     0.0055     0.0470     0.0212     0.0980     6.9547    33.9200     0.0641     0.3927
  108    2.140   2161.98     0.0751     0.0053     0.0483     0.0214     0.0952     7.0610    34.2400     0.0610     0.4341
  109    2.160   2163.04     0.0736     0.0051     0.0485     0.0216     0.0940     6.9619    34.5600     0.0594     0.4525
  110    2.180   2164.05     0.0702     0.0048     0.0475     0.0218     0.0903     6.8419    34.8800     0.0555     0.4695
  111    2.200   2165.06     0.0726     0.0046     0.0483     0.0220     0.0927     6.2920    35.2000     0.0575     0.4481
  112    2.220   2166.07     0.0676     0.0049     0.0503     0.0222     0.0883     7.3036    35.5200     0.0527     0.5138
  113    2.240   2167.08     0.0700     0.0045     0.0535     0.0224     0.0919     6.4919    35.8400     0.0561     0.5318
  114    2.260   2168.09     0.0749     0.0045     0.0565     0.0226     0.0983     6.0782    36.1600     0.0621     0.5309
  115    2.280   2169.09     0.0759     0.0045     0.0578     0.0228     0.0999     5.9214    36.4800     0.0634     0.5438
  116    2.300   2170.10     0.0780     0.0046     0.0593     0.0230     0.1027     5.8715    36.8000     0.0659     0.5438
  117    2.320   2171.11     0.0765     0.0044     0.0611     0.0232     0.1019     5.7048    37.1200     0.0647     0.5738
  118    2.340   2172.14     0.0775     0.0044     0.0646     0.0234     0.1042     5.6892    37.4400     0.0668     0.6027
  119    2.360   2173.15     0.0825     0.0048     0.0669     0.0236     0.1103     5.8199    37.7600     0.0725     0.5872
  120    2.380   2174.13     0.0808     0.0048     0.0679     0.0238     0.1091     6.0181    38.0800     0.0711     0.6132
  121    2.400   2175.14     0.0847     0.0049     0.0658     0.0240     0.1124     5.7869    38.4000     0.0740     0.5671
  122    2.420   2176.13     0.0878     0.0049     0.0623     0.0242     0.1146     5.6004    38.7200     0.0759     0.5227
  123    2.440   2177.15     0.0811     0.0053     0.0584     0.0244     0.1061     6.5639    39.0400     0.0670     0.5225
  124    2.460   2178.15     0.0840     0.0054     0.0565     0.0246     0.1081     6.4095    39.3600     0.0687     0.4761
  125    2.480   2179.16     0.0849     0.0060     0.0556     0.0248     0.1084     7.2312    39.6800     0.0687     0.4507
  126    2.500   2180.17     0.0809     0.0065     0.0584     0.0250     0.1048     8.0687    40.0000     0.0648     0.4923
  127    2.520   2181.13     0.0827     0.0065     0.0622     0.0252     0.1082     7.9670    40.3200     0.0679     0.5229
  128    2.540   2182.15     0.0865     0.0064     0.0623     0.0254     0.1133     7.3714    40.6400     0.0726     0.5261
  129    2.560   2183.20     0.0854     0.0062     0.0615     0.0256     0.1112     7.2368    40.9600     0.0702     0.5096
  130    2.580   2199.79     0.0847     0.0065     0.0595     0.0258     0.1100     7.5107    41.2800     0.0688     0.5011
  131    2.600   2228.54     0.0818     0.0061     0.0572     0.0260     0.1061     7.0300    41.6000     0.0645     0.4950
  132    2.620   2249.41     0.0771     0.0058     0.0514     0.0262     0.0999     7.4814    41.9200     0.0580     0.4865
  133    2.640   2250.52     0.0740     0.0055     0.0477     0.0264     0.0940     7.4214    42.2400     0.0518     0.4104
  134    2.660   2251.55     0.0714     0.0055     0.0503     0.0266     0.0921     7.6556    42.5600     0.0496     0.4572
  135    2.680   2252.53     0.0723     0.0053     0.0530     0.0268     0.0943     7.4236    42.8800     0.0514     0.4957
  136    2.700   2253.51     0.0696     0.0051     0.0539     0.0270     0.0922     7.3437    43.2000     0.0490     0.5485
  137    2.720   2254.51     0.0699     0.0048     0.0538     0.0272     0.0925     6.8618    43.5200     0.0490     0.5429
  138    2.740   2255.49     0.0673     0.0044     0.0543     0.0274     0.0900     6.4100    43.8400     0.0462     0.5771
  139    2.760   2256.55     0.0675     0.0042     0.0554     0.0276     0.0905     6.2511    44.1600     0.0464     0.5894
  140    2.780   2257.61     0.0706     0.0040     0.0580     0.0278     0.0947     5.8643    44.4800     0.0502     0.5857
  141    2.800   2258.62     0.0763     0.0036     0.0615     0.0280     0.1015     5.0948    44.8000     0.0567     0.5677
  142    2.820   2259.57     0.0746     0.0037     0.0659     0.0282     0.1015     5.1330    45.1200     0.0564     0.6352
  143    2.840   2264.62     0.0785     0.0040     0.0659     0.0284     0.1067     5.7080    45.4400     0.0612     0.6335
  144    2.860   2274.70     0.0818     0.0038     0.0627     0.0286     0.1085     5.1660    45.7600     0.0628     0.5583
  145    2.880   2278.31     0.0816     0.0037     0.0645     0.0288     0.1084     4.5720    46.0800     0.0623     0.5627
  146    2.900   2279.31     0.0829     0.0038     0.0654     0.0290     0.1104     4.5594    46.4000     0.0640     0.5683
  147    2.920   2280.32     0.0806     0.0038     0.0649     0.0292     0.1079     4.7323    46.7200     0.0612     0.5872
  148    2.940   2281.39     0.0800     0.0041     0.0662     0.0294     0.1075     5.1486    47.0400     0.0605     0.5964
  149    2.960   2282.39     0.0829     0.0044     0.0692     0.0296     0.1114     5.2820    47.3600     0.0640     0.5990
  150    2.980   2283.38     0.0859     0.0048     0.0726     0.0298     0.1159     5.5695    47.6800     0.0683     0.6116
  151    3.000   2284.38     0.0872     0.0050     0.0734     0.0300     0.1179     5.7837    48.0000     0.0699     0.6179
  152    3.020   2285.41     0.0885     0.0054     0.0752     0.0302     0.1198     6.1112    48.3200     0.0715     0.6196
  153    3.040   2286.43     0.0903     0.0052     0.0752     0.0304     0.1221     5.7756    48.6400     0.0735     0.6170
  154    3.060   2287.40     0.0915     0.0054     0.0748     0.0306     0.1228     6.0896    48.9600     0.0738     0.5946
  155    3.080   2288.41     0.0945     0.0058     0.0772     0.0308     0.1266     6.2085    49.2800     0.0773     0.5903
  156    3.100   2289.45     0.0932     0.0061     0.0737     0.0310     0.1248     6.5107    49.6000     0.0752     0.5898
  157    3.120   2290.51     0.0888     0.0062     0.0703     0.0312     0.1187     6.9394    49.9200     0.0688     0.5816
  158    3.140   2291.52     0.0885     0.0064     0.0678     0.0314     0.1173     7.2646    50.2400     0.0670     0.5537
  159    3.160   2292.51     0.0895     0.0064     0.0645     0.0316     0.1170     7.1497    50.5600     0.0665     0.5104
  160    3.180   2293.52     0.0864     0.0064     0.0628     0.0318     0.1129     7.4309    50.8800     0.0620     0.5046
  161    3.200   2294.49     0.0840     0.0064     0.0635     0.0320     0.1106     7.6299    51.2000     0.0594     0.5257
  162    3.220   2295.50     0.0842     0.0063     0.0638     0.0322     0.1111     7.4446    51.5200     0.0595     0.5317
  163    3.240   2296.54     0.0831     0.0059     0.0638     0.0324     0.1100     7.0385    51.8400     0.0581     0.5423
  164    3.260   2297.59     0.0836     0.0053     0.0646     0.0326     0.1106     6.4106    52.1600     0.0584     0.5438
  165    3.280   2298.60     0.0781     0.0052     0.0655     0.0328     0.1054     6.6925    52.4800     0.0529     0.6093
  166    3.300   2299.56     0.0750     0.0046     0.0657     0.0330     0.1026     6.0828    52.8000     0.0498     0.6579
  167    3.320   2300.57     0.0728     0.0047     0.0648     0.0332     0.1002     6.3669    53.1200     0.0471     0.6800
  168    3.340   2301.58     0.0730     0.0045     0.0648     0.0334     0.1002     6.1418    53.4400     0.0468     0.6699
  169    3.360   2302.58     0.0741     0.0045     0.0649     0.0336     0.1015     6.0715    53.7600     0.0477     0.6599
  170    3.380   2303.62     0.0732     0.0044     0.0652     0.0338     0.1006     6.0083    54.0800     0.0465     0.6720
  171    3.400   2304.63     0.0752     0.0042     0.0666     0.0340     0.1031     5.6674    54.4000     0.0487     0.6633
  172    3.420   2305.64     0.0764     0.0047     0.0693     0.0342     0.1051     6.1299    54.7200     0.0503     0.6779
  173    3.440   2306.60     0.0776     0.0048     0.0723     0.0344     0.1076     6.1517    55.0400     0.0526     0.7054
  174    3.460   2307.60     0.0791     0.0045     0.0744     0.0346     0.1101     5.6282    55.3600     0.0547     0.7180
  175    3.480   2308.64     0.0814     0.0050     0.0757     0.0348     0.1129     6.1724    55.6800     0.0572     0.7030
  176    3.500   2309.68     0.0838     0.0051     0.0779     0.0350     0.1161     6.0744    56.0000     0.0601     0.6981
  177    3.520   2310.65     0.0855     0.0053     0.0805     0.0352     0.1193     6.2466    56.3200     0.0630     0.7191
  178    3.540   2311.70     0.0905     0.0059     0.0821     0.0354     0.1244     6.5117    56.6400     0.0677     0.6672
  179    3.560   2312.72     0.0928     0.0060     0.0830     0.0356     0.1278     6.4963    56.9600     0.0708     0.6738
  180    3.580   2313.75     0.0931     0.0065     0.0823     0.0358     0.1279     6.9422    57.2800     0.0706     0.6659
  181    3.600   2314.76     0.0930     0.0066     0.0794     0.0360     0.1269     7.0713    57.6000     0.0693     0.6461
  182    3.620   2315.70     0.0916     0.0066     0.0754     0.0362     0.1238     7.2499    57.9200     0.0659     0.6154
  183    3.640   2316.74     0.0866     0.0069     0.0711     0.0364     0.1171     7.9400    58.2400     0.0589     0.6169
  184    3.660   2317.76     0.0828     0.0068     0.0679     0.0366     0.1116     8.2158    58.5600     0.0530     0.6044
  185    3.680   2318.82     0.0821     0.0068     0.0681     0.0368     0.1104     8.2486    58.8800     0.0516     0.5982
  186    3.700   2319.83     0.0809     0.0067     0.0697     0.0370     0.1099     8.2378    59.2000     0.0507     0.6343
  187    3.720   2320.82     0.0786     0.0066     0.0710     0.0372     0.1082     8.4482    59.5200     0.0487     0.6830
  188    3.740   2321.80     0.0801     0.0063     0.0742     0.0374     0.1108     7.8924    59.8400     0.0509     0.6992
  189    3.760   2322.81     0.0826     0.0064     0.0747     0.0376     0.1139     7.7781    60.1600     0.0537     0.6854
  190    3.780   2323.85     0.0799     0.0062     0.0772     0.0378     0.1120     7.7859    60.4800     0.0515     0.7510
  191    3.800   2324.88     0.0801     0.0060     0.0775     0.0380     0.1128     7.4939    60.8000     0.0520     0.7651
  192    3.820   2325.87     0.0786     0.0061     0.0766     0.0382     0.1109     7.7973    61.1200     0.0497     0.7785
  193    3.840   2326.88     0.0769     0.0065     0.0773     0.0384     0.1092     8.4464    61.4400     0.0477     0.8032
  194    3.860   2327.86     0.0817     0.0068     0.0732     0.0386     0.1134     8.3139    61.7600     0.0516     0.7149
  195    3.880   2328.87     0.0814     0.0069     0.0691     0.0388     0.1108     8.5004    62.0800     0.0487     0.6411
  196    3.900   2329.87     0.0889     0.0075     0.0731     0.0390     0.1190     8.5290    62.4000     0.0566     0.5782
  197    3.920   2330.92     0.0931     0.0074     0.0767     0.0392     0.1248     7.9741    62.7200     0.0621     0.5841
  198    3.940   2331.92     0.0926     0.0074     0.0750     0.0394     0.1247     7.9569    63.0400     0.0617     0.5985
  199    3.960   2332.94     0.0907     0.0076     0.0729     0.0396     0.1214     8.3489    63.3600     0.0581     0.5795
  200    3.980   2333.93     0.0906     0.0077     0.0717     0.0398     0.1205     8.5247    63.6800     0.0569     0.5553
  201    4.000   2334.91     0.0862     0.0079     0.0758     0.0400     0.1178     8.9017    64.0000     0.0538     0.6576
  202    4.020   2335.92     0.0884     0.0079     0.0730     0.0402     0.1192     9.0005    64.3200     0.0549     0.6055
  203    4.040   2336.93     0.0903     0.0080     0.0723     0.0404     0.1209     8.9187    64.6400     0.0563     0.5757
  204    4.060   2337.96     0.0882     0.0078     0.0747     0.0406     0.1186     8.7936    64.9600     0.0537     0.5946
  205    4.080   2339.04     0.0905     0.0076     0.0824     0.0408     0.1246     8.4316    65.2800     0.0593     0.6784
  206    4.100   2340.05     0.0918     0.0078     0.0856     0.0410     0.1273     8.5386    65.6000     0.0617     0.7055
  207    4.120   2341.06     0.0940     0.0075     0.0883     0.0412     0.1306     8.0030    65.9200     0.0647     0.7115
  208    4.140   2342.07     0.0929     0.0078     0.0901     0.0414     0.1310     8.3945    66.2400     0.0647     0.7623
  209    4.160   2343.07     0.0949     0.0078     0.0892     0.0416     0.1323     8.1726    66.5600     0.0657     0.7232
  210    4.180   2344.06     0.0946     0.0079     0.0885     0.0418     0.1318     8.2898    66.8800     0.0649     0.7191
  211    4.200   2345.09     0.0932     0.0079     0.0830     0.0420     0.1296     8.4892    67.2000     0.0624     0.7152
  212    4.220   2346.13     0.0926     0.0084     0.0839     0.0422     0.1272     9.1256    67.5200     0.0597     0.6734
  213    4.240   2347.10     0.0913     0.0081     0.0873     0.0424     0.1277     8.9154    67.8400     0.0598     0.7371
  214    4.260   2348.12     0.0901     0.0083     0.0910     0.0426     0.1278     9.1944    68.1600     0.0596     0.7882
  215    4.280   2349.15     0.0917     0.0083     0.0942     0.0428     0.1309     8.9769    68.4800     0.0624     0.8090
  216    4.300   2350.16     0.0941     0.0077     0.0943     0.0430     0.1333     8.2905    68.8000     0.0645     0.7783
  217    4.320   2351.17     0.0943     0.0081     0.0951     0.0432     0.1342     8.5922    69.1200     0.0650     0.7954
  218    4.340   2352.18     0.0992     0.0076     0.0959     0.0434     0.1395     7.6543    69.4400     0.0700     0.7488
  219    4.360   2353.14     0.1001     0.0080     0.0930     0.0436     0.1400     8.0377    69.7600     0.0702     0.7331
  220    4.380   2354.15     0.0996     0.0083     0.0885     0.0438     0.1370     8.2686    70.0800     0.0669     0.6752
  221    4.400   2355.16     0.1003     0.0083     0.0895     0.0440     0.1377     8.2954    70.4000     0.0673     0.6699
  222    4.420   2356.21     0.0993     0.0087     0.0891     0.0442     0.1370     8.7444    70.7200     0.0663     0.6878
  223    4.440   2357.23     0.1004     0.0092     0.0888     0.0444     0.1376     9.3150    71.0400     0.0666     0.6663
  224    4.460   2358.23     0.1029     0.0089     0.0917     0.0446     0.1409     8.7099    71.3600     0.0696     0.6607
  225    4.480   2359.23     0.1068     0.0091     0.0905     0.0448     0.1455     8.4943    71.6800     0.0738     0.6410
  226    4.500   2360.21     0.1077     0.0090     0.0914     0.0450     0.1458     8.3897    72.0000     0.0738     0.6190
  227    4.520   2361.22     0.1043     0.0088     0.0865     0.0452     0.1416     8.4186    72.3200     0.0693     0.6277
  228    4.540   2362.23     0.0984     0.0088     0.0830     0.0454     0.1334     8.9669    72.6400     0.0607     0.6232
  229    4.560   2363.26     0.0930     0.0088     0.0842     0.0456     0.1279     9.4765    72.9600     0.0549     0.6829
  230    4.580   2364.30     0.0922     0.0088     0.0876     0.0458     0.1286     9.4903    73.2800     0.0553     0.7379
  231    4.600   2365.31     0.0894     0.0086     0.0884     0.0460     0.1264     9.5134    73.6000     0.0528     0.7978
  232    4.620   2366.30     0.0884     0.0084     0.0888     0.0462     0.1257     9.5367    73.9200     0.0518     0.8222
  233    4.640   2367.31     0.0874     0.0082     0.0921     0.0464     0.1254     9.4218    74.2400     0.0512     0.8637
  234    4.660   2368.34     0.0888     0.0082     0.0963     0.0466     0.1286     9.2154    74.5600     0.0541     0.8946
  235    4.680   2374.14     0.0910     0.0076     0.0989     0.0468     0.1324     8.5849    74.8800     0.0575     0.9044
  236    4.700   2392.98     0.0984     0.0079     0.1001     0.0470     0.1402     8.8378    75.2000     0.0650     0.8253
  237    4.720   2411.83     0.1057     0.0079     0.1013     0.0472     0.1481     8.3066    75.5200     0.0726     0.7462
  238    4.740   2418.31     0.1064     0.0076     0.1001     0.0474     0.1487     7.0854    75.8400     0.0728     0.7308
  239    4.760   2419.32     0.1075     0.0077     0.1021     0.0476     0.1499     7.1191    76.1600     0.0738     0.7237
  240    4.780   2420.36     0.1103     0.0078     0.1022     0.0478     0.1533     7.0904    76.4800     0.0768     0.7101
  241    4.800   2421.38     0.1110     0.0083     0.1013     0.0480     0.1540     7.4658    76.8000     0.0772     0.7027
  242    4.820   2422.38     0.1111     0.0084     0.0963     0.0482     0.1523     7.5150    77.1200     0.0752     0.6660
  243    4.840   2423.36     0.1112     0.0084     0.0948     0.0484     0.1510     7.5426    77.4400     0.0736     0.6307
  244    4.860   2424.37     0.1089     0.0085     0.0949     0.0486     0.1488     7.7769    77.7600     0.0710     0.6546
  245    4.880   2425.36     0.1056     0.0087     0.0907     0.0488     0.1443     8.2340    78.0800     0.0662     0.6566
  246    4.900   2426.39     0.1035     0.0086     0.0920     0.0490     0.1417     8.2718    78.4000     0.0633     0.6628
  247    4.920   2427.38     0.1017     0.0090     0.0979     0.0492     0.1419     8.8482    78.7200     0.0632     0.7358
  248    4.940   2428.40     0.1054     0.0091     0.1041     0.0494     0.1483     8.6075    79.0400     0.0693     0.7618
  249    4.960   2429.41     0.1132     0.0088     0.1084     0.0496     0.1582     7.8321    79.3600     0.0788     0.7304
  250    4.980   2430.42     0.1152     0.0088     0.1074     0.0498     0.1606     7.6762    79.6800     0.0809     0.7222
  251    5.000   2431.42     0.1204     0.0090     0.1089     0.0500     0.1657     7.4801    80.0000     0.0857     0.6765
  252    5.020   2432.43     0.1222     0.0093     0.1060     0.0502     0.1671     7.5717    80.3200     0.0867     0.6535
  253    5.040   2433.43     0.1227     0.0095     0.1093     0.0504     0.1683     7.7103    80.6400     0.0877     0.6643
  254    5.060   2434.46     0.1275     0.0097     0.1075     0.0506     0.1733     7.6619    80.9600     0.0923     0.6340
  255    5.080   2435.47     0.1266     0.0094     0.1018     0.0508     0.1699     7.4550    81.2800     0.0886     0.5895
  256    5.100   2436.48     0.1248     0.0093     0.1027     0.0510     0.1676     7.4205    81.6000     0.0860     0.5924
  257    5.120   2437.51     0.1288     0.0095     0.1083     0.0512     0.1737     7.3849    81.9200     0.0918     0.6068
  258    5.140   2438.52     0.1313     0.0097     0.1101     0.0514     0.1772     7.3911    82.2400     0.0949     0.6078
  259    5.160   2439.53     0.1321     0.0098     0.1129     0.0516     0.1796     7.4019    82.5600     0.0970     0.6329
  260    5.180   2440.53     0.1340     0.0093     0.1006     0.0518     0.1781     6.9899    82.8800     0.0953     0.5594
  261    5.200   2441.54     0.1341     0.0097     0.1004     0.0520     0.1755     7.2138    83.2000     0.0923     0.5060
  262    5.220   2442.58     0.1345     0.0096     0.1026     0.0522     0.1773     7.1264    83.5200     0.0937     0.5294
  263    5.240   2443.55     0.1317     0.0100     0.1038     0.0524     0.1750     7.6183    83.8400     0.0912     0.5572
  264    5.260   2444.57     0.1256     0.0100     0.1089     0.0526     0.1706     7.9205    84.1600     0.0864     0.6304
  265    5.280   2445.59     0.1260     0.0099     0.1078     0.0528     0.1719     7.8560    84.4800     0.0874     0.6458
  266    5.300   2446.60     0.1240     0.0098     0.1047     0.0530     0.1685     7.8883    84.8000     0.0837     0.6323
  267    5.320   2447.59     0.1200     0.0096     0.1062     0.0532     0.1642     7.9981    85.1200     0.0791     0.6563
  268    5.340   2448.60     0.1204     0.0091     0.1095     0.0534     0.1656     7.5515    85.4400     0.0801     0.6751
  269    5.360   2449.61     0.1167     0.0091     0.1136     0.0536     0.1640     7.7473    85.7600     0.0783     0.7547
  270    5.380   2450.56     0.1147     0.0092     0.1166     0.0538     0.1631     8.0042    86.0800     0.0770     0.7961
  271    5.400   2451.58     0.1183     0.0093     0.1181     0.0540     0.1680     7.8916    86.4000     0.0816     0.7881
  272    5.420   2452.62     0.1171     0.0090     0.1172     0.0542     0.1665     7.7536    86.7200     0.0798     0.7952
  273    5.440   2453.67     0.1146     0.0086     0.1157     0.0544     0.1633     7.4862    87.0400     0.0763     0.8074
  274    5.460   2454.66     0.1163     0.0084     0.1160     0.0546     0.1655     7.1399    87.3600     0.0782     0.8008
  275    5.480   2455.66     0.1169     0.0085     0.1206     0.0548     0.1667     7.1731    87.6800     0.0790     0.8051
  276    5.500   2456.52     0.1201     0.0085     0.1276     0.0550     0.1727     7.1277    88.0000     0.0847     0.8281
  277    5.520   2457.43     0.1281     0.0089     0.1199     0.0552     0.1802     7.0762    88.3200     0.0919     0.7500
  278    5.540   2458.47     0.1323     0.0089     0.1069     0.0554     0.1789     6.7576    88.6400     0.0903     0.6162
  279    5.560   2459.48     0.1287     0.0087     0.1032     0.0556     0.1720     6.7248    88.9600     0.0830     0.5702
  280    5.580   2460.48     0.1285     0.0087     0.1078     0.0558     0.1732     6.8595    89.2800     0.0839     0.6039
  281    5.600   2461.53     0.1260     0.0089     0.1092     0.0560     0.1715     7.0285    89.6000     0.0819     0.6380
  282    5.620   2462.58     0.1270     0.0091     0.1159     0.0562     0.1745     7.1302    89.9200     0.0845     0.6727
  283    5.640   2463.63     0.1338     0.0092     0.1229     0.0564     0.1848     6.9528    90.2400     0.0946     0.6893
  284    5.660   2464.64     0.1350     0.0092     0.1200     0.0566     0.1857     6.8597    90.5600     0.0952     0.6757
  285    5.680   2465.65     0.1411     0.0089     0.1163     0.0568     0.1903     6.2931    90.8800     0.0994     0.6072
  286    5.700   2466.66     0.1388     0.0092     0.1074     0.0570     0.1845     6.5938    91.2000     0.0933     0.5552
  287    5.720   2467.66     0.1350     0.0091     0.1137     0.0572     0.1814     6.7236    91.5200     0.0899     0.5912
  288    5.740   2468.62     0.1273     0.0091     0.1159     0.0574     0.1760     6.9649    91.8400     0.0842     0.6965
  289    5.760   2469.51     0.1223     0.0089     0.1177     0.0576     0.1715     7.0553    92.1600     0.0793     0.7487
  290    5.780   2470.33     0.1172     0.0087     0.1192     0.0578     0.1671     7.3862    92.4800     0.0746     0.8184
  291    5.800   2471.20     0.1154     0.0087     0.1220     0.0580     0.1659     7.5286    92.8000     0.0731     0.8503
  292    5.820   2472.25     0.1151     0.0083     0.1271     0.0582     0.1677     7.2304    93.1200     0.0746     0.9005
  293    5.840   2473.26     0.1169     0.0082     0.1317     0.0584     0.1716     7.0550    93.4400     0.0782     0.9185
  294    5.860   2474.24     0.1201     0.0084     0.1356     0.0586     0.1767     7.0235    93.7600     0.0830     0.9192
  295    5.880   2475.22     0.1252     0.0086     0.1353     0.0588     0.1826     6.9232    94.0800     0.0885     0.8798
  296    5.900   2476.23     0.1294     0.0092     0.1252     0.0590     0.1849     7.0981    94.4000     0.0905     0.8067
  297    5.920   2477.24     0.1286     0.0092     0.1154     0.0592     0.1783     7.1909    94.7200     0.0836     0.7077
  298    5.940   2478.27     0.1261     0.0091     0.1170     0.0594     0.1748     7.2296    95.0400     0.0798     0.7103
  299    5.960   2479.30     0.1245     0.0087     0.1180     0.0596     0.1740     7.0258    95.3600     0.0786     0.7412
  300    5.980   2480.31     0.1248     0.0086     0.1224     0.0598     0.1757     6.8620    95.6800     0.0800     0.7665
  301    6.000   2481.30     0.1245     0.0084     0.1256     0.0600     0.1767     6.7668    96.0000     0.0807     0.7983
  302    6.020   2482.28     0.1258     0.0085     0.1299     0.0602     0.1799     6.7792    96.3200     0.0836     0.8196
  303    6.040   2483.31     0.1281     0.0086     0.1210     0.0604     0.1801     6.7493    96.6400     0.0835     0.7605
  304    6.060   2484.32     0.1264     0.0085     0.1141     0.0606     0.1753     6.6846    96.9600     0.0784     0.7134
  305    6.080   2485.41     0.1225     0.0086     0.1113     0.0608     0.1693     7.0579    97.2800     0.0720     0.7051
  306    6.100   2486.42     0.1220     0.0086     0.1129     0.0610     0.1691     7.0835    97.6000     0.0715     0.7165
  307    6.120   2487.43     0.1193     0.0088     0.1111     0.0612     0.1666     7.3894    97.9200     0.0687     0.7470
  308    6.140   2488.42     0.1196     0.0087     0.1101     0.0614     0.1656     7.2875    98.2400     0.0673     0.7151
  309    6.160   2489.43     0.1186     0.0089     0.1153     0.0616     0.1661     7.5222    98.5600     0.0675     0.7629
  310    6.180   2490.50     0.1147     0.0085     0.1207     0.0618     0.1648     7.4107    98.8800     0.0659     0.8702
  311    6.200   2491.50     0.1132     0.0084     0.1255     0.0620     0.1652     7.4429    99.2000     0.0660     0.9355
  312    6.220   2492.54     0.1154     0.0082     0.1301     0.0622     0.1695     7.1351    99.5200     0.0700     0.9507
  313    6.240   2493.46     0.1204     0.0082     0.1354     0.0624     0.1763     6.7980    99.8400     0.0765     0.9254
  314    6.260   2494.51     0.1229     0.0083     0.1412     0.0626     0.1816     6.7374   100.1600     0.0814     0.9464
  315    6.280   2495.58     0.1273     0.0084     0.1425     0.0628     0.1873     6.6345   100.4800     0.0868     0.9218
  316    6.300   2496.54     0.1286     0.0084     0.1417     0.0630     0.1883     6.5633   100.8000     0.0875     0.9057
  317    6.320   2497.55     0.1310     0.0086     0.1396     0.0632     0.1897     6.5450   101.1200     0.0886     0.8641
  318    6.340   2498.54     0.1329     0.0082     0.1421     0.0634     0.1922     6.1959   101.4400     0.0908     0.8569
  319    6.360   2499.51     0.1329     0.0085     0.1469     0.0636     0.1938     6.3785   101.7600     0.0920     0.8825
  320    6.380   2500.50     0.1348     0.0084     0.1472     0.0638     0.1973     6.2328   102.0800     0.0953     0.8928
  321    6.400   2501.54     0.1355     0.0080     0.1463     0.0640     0.1969     5.9446   102.4000     0.0945     0.8697
  322    6.420   2502.60     0.1381     0.0082     0.1466     0.0642     0.1994     5.9347   102.7200     0.0967     0.8468
  323    6.440   2503.60     0.1391     0.0087     0.1460     0.0644     0.2003     6.3511   103.0400     0.0972     0.8370
  324    6.460   2504.58     0.1407     0.0092     0.1458     0.0646     0.2021     6.5407   103.3600     0.0987     0.8268
  325    6.480   2505.54     0.1419     0.0095     0.1404     0.0648     0.2019     6.6881   103.6800     0.0982     0.7949
  326    6.500   2506.55     0.1441     0.0092     0.1327     0.0650     0.2005     6.3522   104.0000     0.0965     0.7165
  327    6.520   2507.61     0.1395     0.0091     0.1332     0.0652     0.1952     6.5208   104.3200     0.0909     0.7410
  328    6.540   2508.70     0.1428     0.0093     0.1377     0.0654     0.1997     6.5007   104.6400     0.0951     0.7387
  329    6.560   2509.70     0.1462     0.0100     0.1453     0.0656     0.2061     6.9773   104.9600     0.1011     0.7609
  330    6.580   2510.67     0.1457     0.0105     0.1504     0.0658     0.2083     7.2534   105.2800     0.1030     0.8076
  331    6.600   2511.63     0.1490     0.0109     0.1463     0.0660     0.2111     7.4815   105.6000     0.1055     0.7753
  332    6.620   2512.65     0.1499     0.0108     0.1448     0.0662     0.2107     7.3215   105.9200     0.1048     0.7502
  333    6.640   2513.73     0.1468     0.0104     0.1455     0.0664     0.2078     7.1344   106.2400     0.1016     0.7764
  334    6.660   2517.92     0.1433     0.0102     0.1459     0.0666     0.2049     7.1228   106.5600     0.0984     0.8153
  335    6.680   2541.21     0.1453     0.0100     0.1432     0.0668     0.2058     6.9715   106.8800     0.0989     0.7820
  336    6.700   2564.50     0.1473     0.0100     0.1406     0.0670     0.2067     6.8565   107.2000     0.0995     0.7486
  337    6.720   2571.52     0.1483     0.0098     0.1387     0.0672     0.2067     6.6377   107.5200     0.0992     0.7254
  338    6.740   2572.15     0.1518     0.0097     0.1411     0.0674     0.2102     6.4230   107.8400     0.1023     0.6988
  339    6.760   2572.84     0.1529     0.0097     0.1461     0.0676     0.2136     6.2923   108.1600     0.1054     0.7304
  340    6.780   2573.53     0.1505     0.0101     0.1492     0.0678     0.2128     6.6772   108.4800     0.1043     0.7707
  341    6.800   2574.14     0.1457     0.0096     0.1515     0.0680     0.2091     6.5696   108.8000     0.1003     0.8272
  342    6.820   2574.77     0.1456     0.0098     0.1541     0.0682     0.2099     6.7633   109.1200     0.1008     0.8411
  343    6.840   2575.38     0.1465     0.0093     0.1568     0.0684     0.2120     6.3529   109.4400     0.1026     0.8533
  344    6.860   2575.98     0.1495     0.0094     0.1606     0.0686     0.2164     6.4279   109.7600     0.1067     0.8505
  345    6.880   2576.60     0.1488     0.0097     0.1617     0.0688     0.2172     6.5320   110.0800     0.1071     0.8767
  346    6.900   2577.25     0.1501     0.0099     0.1599     0.0690     0.2174     6.5597   110.4000     0.1070     0.8523
  347    6.920   2577.95     0.1528     0.0101     0.1605     0.0692     0.2201     6.6753   110.7200     0.1094     0.8325
  348    6.940   2578.62     0.1585     0.0102     0.1588     0.0694     0.2255     6.5938   111.0400     0.1145     0.7874
  349    6.960   2579.25     0.1626     0.0102     0.1583     0.0696     0.2290     6.3235   111.3600     0.1177     0.7519
  350    6.980   2587.88     0.1653     0.0106     0.1567     0.0698     0.2314     6.4872   111.6800     0.1197     0.7328
  351    7.000   2607.89     0.1684     0.0108     0.1546     0.0700     0.2336     6.6141   112.0000     0.1216     0.7021
  352    7.020   2626.22     0.1708     0.0110     0.1522     0.0702     0.2351     6.4688   112.3200     0.1228     0.6753
  353    7.040   2627.24     0.1704     0.0109     0.1480     0.0704     0.2325     6.4201   112.6400     0.1199     0.6468
  354    7.060   2628.32     0.1717     0.0104     0.1518     0.0706     0.2349     6.0524   112.9600     0.1219     0.6544
  355    7.080   2629.36     0.1727     0.0105     0.1590     0.0708     0.2383     6.0527   113.2800     0.1250     0.6837
  356    7.100   2630.37     0.1747     0.0105     0.1646     0.0710     0.2435     6.0625   113.6000     0.1299     0.7144
  357    7.120   2631.33     0.1783     0.0105     0.1610     0.0712     0.2455     5.9425   113.9200     0.1316     0.6757
  358    7.140   2632.37     0.1783     0.0104     0.1662     0.0714     0.2472     5.8127   114.2400     0.1330     0.6959
  359    7.160   2633.47     0.1808     0.0103     0.1610     0.0716     0.2497     5.7830   114.5600     0.1351     0.6837
  360    7.180   2634.53     0.1831     0.0106     0.1590     0.0718     0.2498     5.7640   114.8800     0.1349     0.6443
  361    7.200   2635.56     0.1829     0.0106     0.1610     0.0720     0.2505     5.7988   115.2000     0.1353     0.6572
  362    7.220   2636.57     0.1844     0.0109     0.1670     0.0722     0.2535     5.9158   115.5200     0.1380     0.6686
  363    7.240   2637.54     0.1838     0.0106     0.1667     0.0724     0.2547     5.7498   115.8400     0.1389     0.6953
  364    7.260   2638.57     0.1833     0.0103     0.1657     0.0726     0.2525     5.5405   116.1600     0.1363     0.6751
  365    7.280   2639.63     0.1865     0.0103     0.1702     0.0728     0.2577     5.5405   116.4800     0.1412     0.6845
  366    7.300   2640.67     0.1892     0.0102     0.1715     0.0730     0.2607     5.3942   116.8000     0.1439     0.6767
  367    7.320   2641.59     0.1864     0.0108     0.1748     0.0732     0.2596     5.7512   117.1200     0.1425     0.7102
  368    7.340   2642.57     0.1892     0.0104     0.1712     0.0734     0.2623     5.4842   117.4400     0.1449     0.6943
  369    7.360   2643.61     0.1871     0.0105     0.1734     0.0736     0.2596     5.5883   117.7600     0.1419     0.6981
  370    7.380   2644.74     0.1897     0.0105     0.1715     0.0738     0.2621     5.5151   118.0800     0.1440     0.6843
  371    7.400   2645.77     0.1902     0.0108     0.1760     0.0740     0.2632     5.7124   118.4000     0.1448     0.6898
  372    7.420   2646.74     0.1871     0.0110     0.1857     0.0742     0.2637     5.7495   118.7200     0.1450     0.7454
  373    7.440   2647.76     0.1947     0.0113     0.1825     0.0744     0.2721     5.9312   119.0400     0.1530     0.7173
  374    7.460   2648.74     0.1946     0.0112     0.1804     0.0746     0.2703     5.7307   119.3600     0.1510     0.7008
  375    7.480   2649.74     0.2016     0.0116     0.1807     0.0748     0.2773     5.7848   119.6800     0.1577     0.6700
  376    7.500   2650.83     0.2051     0.0116     0.1803     0.0750     0.2817     5.6958   120.0000     0.1617     0.6645
  377    7.520   2651.91     0.2083     0.0118     0.1784     0.0752     0.2829     5.6562   120.3200     0.1626     0.6300
  378    7.540   2652.92     0.2006     0.0117     0.1852     0.0754     0.2772     5.7991   120.6400     0.1565     0.6837
  379    7.560   2654.03     0.1986     0.0120     0.1913     0.0756     0.2780     6.0162   120.9600     0.1571     0.7229
  380    7.580   2655.05     0.2023     0.0106     0.1987     0.0758     0.2852     5.2819   121.2800     0.1640     0.7427
  381    7.600   2656.06     0.2170     0.0122     0.2044     0.0760     0.3025     5.6483   121.6000     0.1809     0.7045
  382    7.620   2657.10     0.2358     0.0134     0.2017     0.0762     0.3214     5.7213   121.9200     0.1995     0.6400
  383    7.640   2658.11     0.2626     0.0141     0.1888     0.0764     0.3446     5.3540   122.2400     0.2224     0.5351
  384    7.660   2659.12     0.2953     0.0135     0.1894     0.0766     0.3759     4.7621   122.5600     0.2533     0.4550
  385    7.680   2660.09     0.3567     0.0147     0.1339     0.0768     0.4186     4.2917   122.8800     0.2957     0.2391
  386    7.700   2661.10     0.3644     0.0168     0.1506     0.0770     0.4189     4.5834   123.2000     0.2957     0.1788
  387    7.720   2662.16     0.4057     0.0181     0.1824     0.0772     0.4798     4.6695   123.5200     0.3563     0.2784
  388    7.740   2663.17     0.4088     0.0183     0.1695     0.0774     0.4870     4.4783   123.8400     0.3631     0.2992
  389    7.760   2664.24     0.4146     0.0195     0.1392     0.0776     0.4781     4.6663   124.1600     0.3539     0.2075
  390    7.780   2665.28     0.4156     0.0182     0.1160     0.0778     0.4674     4.3828   124.4800     0.3430     0.1328
  391    7.800   2666.26     0.4087     0.0184     0.1172     0.0780     0.4584     4.5173   124.8000     0.3336     0.1211
  392    7.820   2667.32     0.4771     0.0191     0.1410     0.0782     0.5337     4.0203   125.1200     0.4086     0.1382
  393    7.840   2668.30     0.5074     0.0188     0.1457     0.0784     0.5683     3.7506   125.4400     0.4428     0.1502
  394    7.860   2669.26     0.5344     0.0174     0.1340     0.0786     0.5860     3.3299   125.7600     0.4603     0.0963
  395    7.880   2670.26     0.5429     0.0164     0.1254     0.0788     0.5994     2.9788   126.0800     0.4733     0.1174
  396    7.900   2671.31     0.4450     0.0155     0.1430     0.0790     0.5008     3.4907   126.4000     0.3744     0.1453
  397    7.920   2672.43     0.3923     0.0153     0.1717     0.0792     0.4600     3.8766   126.7200     0.3333     0.2464
  398    7.940   2673.44     0.4137     0.0140     0.1928     0.0794     0.4932     3.4088   127.0400     0.3661     0.2997
  399    7.960   2674.47     0.4613     0.0135     0.1864     0.0796     0.5406     3.0427   127.3600     0.4133     0.2648
  400    7.980   2675.45     0.4911     0.0148     0.1858     0.0798     0.5698     3.0803   127.6800     0.4421     0.2430
  401    8.000   2676.40     0.5078     0.0155     0.1795     0.0800     0.5827     3.0607   128.0000     0.4547     0.2162
  402    8.020   2677.47     0.5185     0.0158     0.1802     0.0802     0.5968     3.1181   128.3200     0.4685     0.2270
  403    8.040   2678.50     0.5398     0.0162     0.1636     0.0804     0.6091     2.9990   128.6400     0.4804     0.1758
  404    8.060   2679.62     0.6063     0.0165     0.1754     0.0806     0.6793     2.7506   128.9600     0.5504     0.1696
  405    8.080   2680.67     0.8411     0.0165     0.1657     0.0808     0.9134     1.9687   129.2800     0.7841     0.1169
  406    8.100   2681.68     1.0790     0.0164     0.1492     0.0810     1.1438     1.5190   129.6000     1.0142     0.0722
  407    8.120   2682.73     1.0573     0.0159     0.1215     0.0812     1.1123     1.4475   129.9200     0.9823     0.0504
  408    8.140   2683.70     0.9180     0.0157     0.0721     0.0814     0.9594     1.6150   130.2400     0.8292     0.0204
  409    8.160   2684.71     0.8754     0.0146     0.0622     0.0816     0.8996     1.6505   130.5600     0.7691    -0.0311
  410    8.180   2685.73     0.8403     0.0151     0.0928     0.0818     0.8747     1.7803   130.8800     0.7438    -0.0001
  411    8.200   2686.74     0.8988     0.0143     0.1085     0.0820     0.9421     1.6403   131.2000     0.8109     0.0258
  412    8.220   2687.84     0.9499     0.0125     0.1189     0.0822     0.9983     1.3351   131.5200     0.8668     0.0382
  413    8.240   2688.91     1.0428     0.0112     0.1259     0.0824     1.0948     1.0803   131.8400     0.9630     0.0430
  414    8.260   2689.91     1.0951     0.0108     0.1343     0.0826     1.1500     0.9882   132.1600     1.0178     0.0473
  415    8.280   2690.97     1.1072     0.0104     0.1456     0.0828     1.1669     0.9377   132.4800     1.0344     0.0572
  416    8.300   2691.98     1.1234     0.0118     0.1444     0.0830     1.1846     1.0537   132.8000     1.0518     0.0595
  417    8.320   2692.97     1.0329     0.0127     0.1502     0.0832     1.0944     1.2075   133.1200     0.9613     0.0658
  418    8.340   2694.01     1.1187     0.0147     0.1554     0.0834     1.1836     1.3837   133.4400     1.0502     0.0679
  419    8.360   2694.98     1.3052     0.0162     0.1489     0.0836     1.3693     1.3215   133.7600     1.2356     0.0560
  420    8.380   2695.94     1.4612     0.0199     0.1329     0.0838     1.5195     1.3951   134.0800     1.3854     0.0398
  421    8.400   2696.96     1.4896     0.0225     0.1310     0.0840     1.5438     1.4969   134.4000     1.4094     0.0320
  422    8.420   2698.05     1.4599     0.0292     0.1416     0.0842     1.5172     2.0531   134.7200     1.3824     0.0377
  423    8.440   2699.13     1.3703     0.0359     0.1509     0.0844     1.4329     2.6188   135.0400     1.2979     0.0498
  424    8.460   2700.16     1.3196     0.0360     0.1602     0.0846     1.3854     2.7270   135.3600     1.2501     0.0577
  425    8.480   2701.23     1.4251     0.0334     0.1776     0.0848     1.4987     2.3654   135.6800     1.3631     0.0666
  426    8.500   2702.23     1.8011     0.0374     0.1647     0.0850     1.8739     2.1160   136.0000     1.7379     0.0511
  427    8.520   2715.33     2.3038     0.0409     0.1057     0.0852     2.3571     2.0976   136.3200     2.2208     0.0249
  428    8.540   2736.80     2.9050     0.0361     0.0444     0.0854     2.9326     1.8521   136.6400     2.7959    -0.0031
  429    8.560   2746.75     3.2747     0.0368     0.0470     0.0856     3.2932     1.1416   136.9600     3.1563    -0.0131
  430    8.580   2747.80     3.3527     0.0408     0.0551     0.0858     3.3746     1.2183   137.2800     3.2373    -0.0104
  431    8.600   2748.81     3.2178     0.0479     0.0342     0.0860     3.2375     1.4749   137.6000     3.0999    -0.0126
  432    8.620   2749.82     2.9843     0.0535    -0.0207     0.0862     2.9802     1.7315   137.9200     2.8423    -0.0338
  433    8.640   2750.86     2.7736     0.0492    -0.0197     0.0864     2.7640     1.7374   138.2400     2.6258    -0.0416
  434    8.660   2751.90     2.5362     0.0444    -0.0014     0.0866     2.5344     1.7281   138.5600     2.3959    -0.0379
  435    8.680   2752.91     2.1881     0.0431     0.0047     0.0868     2.1888     1.9306   138.8800     2.0499    -0.0416
  436    8.700   2753.98     1.8634     0.0415     0.0281     0.0870     1.8697     2.2265   139.2000     1.7305    -0.0414
  437    8.720   2755.03     1.8768     0.0365     0.0782     0.0872     1.9042     2.0109   139.5200     1.7647    -0.0126
  438    8.740   2756.04     2.2332     0.0308     0.0920     0.0874     2.2726     1.3825   139.8400     2.1328     0.0030
  439    8.760   2757.04     3.2662     0.0288     0.0591     0.0876     3.2990     1.0306   140.1600     3.1588    -0.0029
  440    8.780   2758.00     4.2826     0.0269     0.0132     0.0878     4.2967     0.6820   140.4800     4.1562    -0.0130
  441    8.800   2759.08     5.2422     0.0273    -0.0230     0.0880     5.2361     0.5596   140.8000     5.0953    -0.0201
  442    8.820   2760.15     6.0586     0.0306    -0.0327     0.0882     6.0449     0.5044   141.1200     5.9038    -0.0205
  443    8.840   2761.21     6.2491     0.0327    -0.0332     0.0884     6.2352     0.5235   141.4400     6.0938    -0.0199
  444    8.860   2762.26     5.9841     0.0375    -0.0322     0.0886     5.9701     0.6178   141.7600     5.8283    -0.0209
  445    8.880   2763.26     5.7166     0.0407    -0.0276     0.0888     5.7045     0.7130   142.0800     5.5624    -0.0211
  446    8.900   2764.26     5.4390     0.0437    -0.0246     0.0890     5.4282     0.7890   142.4000     5.2858    -0.0217
  447    8.920   2765.27     5.3043     0.0467    -0.0206     0.0892     5.2950     0.8763   142.7200     5.1523    -0.0216
  448    8.940   2766.31     5.3228     0.0461    -0.0107     0.0894     5.3171     0.8693   143.0400     5.1741    -0.0199
  449    8.960   2767.34     5.4416     0.0426     0.0004     0.0896     5.4402     0.7898   143.3600     5.2968    -0.0176
  450    8.980   2768.35     5.6317     0.0398     0.0146     0.0898     5.6353     0.7155   143.6800     5.4917    -0.0148
  451    9.000   2769.42     5.8693     0.0379     0.0268     0.0900     5.8790     0.6560   144.0000     5.7350    -0.0117
  452    9.020   2770.52     5.9649     0.0388     0.0359     0.0902     5.9800     0.6511   144.3200     5.8357    -0.0093
  453    9.040   2771.57     5.8540     0.0397     0.0167     0.0904     5.8628     0.6712   144.6400     5.7182    -0.0122
  454    9.060   2772.59     5.7160     0.0445    -0.0013     0.0906     5.7182     0.7699   144.9600     5.5732    -0.0153
  455    9.080   2773.55     5.3700     0.0491    -0.0048     0.0908     5.3676     0.8903   145.2800     5.2223    -0.0185
  456    9.100   2774.63     4.8511     0.0501    -0.0015     0.0910     4.8502     0.9909   145.6000     4.7046    -0.0198
  457    9.120   2775.68     4.5369     0.0484     0.0028     0.0912     4.5367     1.0519   145.9200     4.3908    -0.0209
  458    9.140   2776.74     4.3262     0.0447     0.0146     0.0914     4.3304     1.0337   146.2400     4.1842    -0.0195
  459    9.160   2777.81     4.4376     0.0464     0.0358     0.0916     4.4491     1.0565   146.5600     4.3026    -0.0149
  460    9.180   2778.82     4.6954     0.0467     0.0458     0.0918     4.7147     1.0111   146.8800     4.5678    -0.0100
  461    9.200   2779.81     4.9997     0.0457     0.0272     0.0920     5.0124     0.9348   147.2000     4.8652    -0.0127
  462    9.220   2780.84     5.0471     0.0482     0.0142     0.0922     5.0539     0.9582   147.5200     4.9064    -0.0155
  463    9.240   2781.87     4.7769     0.0537     0.0164     0.0924     4.7833     1.1053   147.8400     4.6354    -0.0167
  464    9.260   2782.89     4.3806     0.0587     0.0236     0.0926     4.3893     1.3056   148.1600     4.2411    -0.0170
  465    9.280   2783.96     3.9926     0.0542     0.0346     0.0928     4.0055     1.3184   148.4800     3.8570    -0.0161
  466    9.300   2785.00     3.7442     0.0488     0.0488     0.0930     3.7623     1.2701   148.8000     3.6135    -0.0137
  467    9.320   2786.01     3.5830     0.0495     0.0651     0.0932     3.6077     1.3631   149.1200     3.4586    -0.0099
  468    9.340   2786.99     3.7184     0.0449     0.0723     0.0934     3.7502     1.2417   149.4400     3.6007    -0.0049
  469    9.360   2788.04     4.1457     0.0388     0.0351     0.0936     4.1661     0.9909   149.7600     4.0163    -0.0112
  470    9.380   2789.10     4.5813     0.0344     0.0098     0.0938     4.5865     0.7690   150.0800     4.4364    -0.0184
  471    9.400   2790.17     4.8888     0.0327     0.0048     0.0940     4.8911     0.6911   150.4000     4.7407    -0.0186
  472    9.420   2791.18     5.3507     0.0339     0.0173     0.0942     5.3564     0.6508   150.7200     5.2057    -0.0155
  473    9.440   2792.18     6.1338     0.0392     0.0070     0.0944     6.1383     0.6680   151.0400     5.9873    -0.0140
  474    9.460   2793.22     6.5857     0.0423     0.0031     0.0946     6.5867     0.6528   151.3600     6.4353    -0.0143
  475    9.480   2794.26     6.8037     0.0425     0.0127     0.0948     6.8073     0.6334   151.6800     6.6556    -0.0129
  476    9.500   2795.35     7.1688     0.0474     0.0224     0.0950     7.1767     0.6731   152.0000     7.0247    -0.0108
  477    9.520   2796.44     7.2772     0.0568     0.0285     0.0952     7.2888     0.7751   152.3200     7.1365    -0.0095
  478    9.540   2797.48     6.8212     0.0675     0.0302     0.0954     6.8338     0.9540   152.6400     6.6811    -0.0098
  479    9.560   2798.44     6.0107     0.0779     0.0277     0.0956     6.0227     1.2278   152.9600     5.8697    -0.0115
  480    9.580   2799.51     5.0035     0.0839     0.0302     0.0958     5.0159     1.5437   153.2800     4.8626    -0.0137
  481    9.600   2800.53     4.0555     0.0821     0.0362     0.0960     4.0695     1.8644   153.6000     3.9159    -0.0160
  482    9.620   2801.64     3.2082     0.0748     0.0503     0.0962     3.2271     2.2883   153.9200     3.0732    -0.0167
  483    9.640   2802.68     2.5921     0.0639     0.0722     0.0964     2.6188     2.4412   154.2400     2.4646    -0.0133
  484    9.660   2803.69     2.1746     0.0568     0.1007     0.0966     2.2132     2.6153   154.5600     2.0586    -0.0022
  485    9.680   2804.65     1.8699     0.0512     0.1056     0.0968     1.9155     2.5528   154.8800     1.7606     0.0067
  486    9.700   2805.67     1.6134     0.0428     0.1062     0.0970     1.6584     2.5291   155.2000     1.5032     0.0067
  487    9.720   2806.68     1.3946     0.0347     0.1098     0.0972     1.4404     2.3900   155.5200     1.2849     0.0094
  488    9.740   2807.71     1.2437     0.0304     0.0675     0.0974     1.2807     2.4442   155.8400     1.1249    -0.0084
  489    9.760   2808.81     1.1253     0.0283     0.0668     0.0976     1.1518     2.4758   156.1600     0.9956    -0.0347
  490    9.780   2809.79     1.0055     0.0283     0.0577     0.0978     1.0312     2.8043   156.4800     0.8748    -0.0417
  491    9.800   2810.84     1.0056     0.0280     0.0835     0.0980     1.0367     2.8215   156.8000     0.8799    -0.0274
  492    9.820   2811.86     1.1940     0.0292     0.1109     0.0982     1.2358     2.6938   157.1200     1.0786     0.0006
  493    9.840   2812.89     1.4075     0.0275     0.1208     0.0984     1.4580     2.0046   157.4400     1.3006     0.0168
  494    9.860   2813.85     1.4608     0.0270     0.1287     0.0986     1.5140     1.8614   157.7600     1.3562     0.0207
  495    9.880   2814.89     1.5103     0.0279     0.1337     0.0988     1.5660     1.8746   158.0800     1.4079     0.0240
  496    9.900   2815.89     1.5963     0.0275     0.1190     0.0990     1.6508     1.7339   158.4000     1.4924     0.0207
  497    9.920   2816.99     1.6327     0.0262     0.0881     0.0992     1.6722     1.6038   158.7200     1.5134    -0.0035
  498    9.940   2818.01     1.7658     0.0257     0.0597     0.0994     1.7988     1.5116   159.0400     1.6397    -0.0127
  499    9.960   2819.07     1.9140     0.0214     0.0109     0.0996     1.9227     1.1349   159.3600     1.7633    -0.0447
  500    9.980   2820.08     1.8447     0.0173    -0.0117     0.0998     1.8426     0.9364   159.6800     1.6829    -0.0624
  501   10.000   2821.06     1.6459     0.0167    -0.0227     0.1000     1.6377     1.0106   160.0000     1.4777    -0.0810
  502   10.020   2822.10     1.4452     0.0172    -0.0315     0.1002     1.4335     1.1325   160.3200     1.2732    -0.1006
  503   10.040   2823.17     1.2509     0.0170    -0.0312     0.1004     1.2378     1.2883   160.6400     1.0772    -0.1223
  504   10.060   2824.18     1.0927     0.0185    -0.0261     0.1006     1.0806     1.6277   160.9600     0.9196    -0.1407
  505   10.080   2825.19     1.0015     0.0214    -0.0225     0.1008     0.9918     2.0753   161.2800     0.8305    -0.1492
  506   10.100   2826.18     1.0600     0.0212    -0.0165     0.1010     1.0521     2.0635   161.6000     0.8905    -0.1349
  507   10.120   2827.26     1.3066     0.0215    -0.0063     0.1012     1.3024     1.6487   161.9200     1.1405    -0.0978
  508   10.140   2828.32     1.4938     0.0220     0.0008     0.1014     1.4930     1.4733   162.2400     1.3308    -0.0776
  509   10.160   2829.33     1.4869     0.0230     0.0073     0.1016     1.4893     1.5496   162.5600     1.3268    -0.0722
  510   10.180   2830.38     1.3018     0.0243     0.0202     0.1018     1.3083     1.8189   162.8800     1.1454    -0.0753
  511   10.200   2831.35     1.2229     0.0247     0.0263     0.1020     1.2327     1.9917   163.2000     1.0695    -0.0735
  512   10.220   2832.37     1.1131     0.0241     0.0432     0.1022     1.1286     2.0694   163.5200     0.9650    -0.0678
  513   10.240   2833.39     1.0154     0.0214     0.0612     0.1024     1.0385     2.0704   163.8400     0.8746    -0.0541
  514   10.260   2834.43     1.0061     0.0206     0.0767     0.1026     1.0361     2.0474   164.1600     0.8720    -0.0358
  515   10.280   2835.48     1.0250     0.0214     0.0934     0.1028     1.0623     2.0870   164.4800     0.8978    -0.0157
  516   10.300   2836.52     1.0140     0.0219     0.1124     0.1030     1.0576     2.1556   164.8000     0.8928     0.0009
  517   10.320   2837.54     1.0447     0.0218     0.1305     0.1032     1.0972     2.1033   165.1200     0.9321     0.0234
  518   10.340   2838.51     1.1016     0.0211     0.1454     0.1034     1.1608     1.9191   165.4400     0.9954     0.0378
  519   10.360   2839.55     1.1631     0.0197     0.1578     0.1036     1.2273     1.7293   165.7600     1.0616     0.0465
  520   10.380   2840.60     1.1108     0.0213     0.1689     0.1038     1.1803     1.8861   166.0800     1.0142     0.0608
  521   10.400   2841.61     0.9892     0.0269     0.1906     0.1040     1.0652     2.6662   166.4000     0.8988     0.0857
  522   10.420   2842.62     0.9636     0.0305     0.2112     0.1042     1.0501     3.1751   166.7200     0.8834     0.1151
  523   10.440   2843.61     0.9926     0.0292     0.2312     0.1044     1.0880     2.9248   167.0400     0.9210     0.1334
  524   10.460   2844.63     1.0121     0.0287     0.2440     0.1046     1.1127     2.8557   167.3600     0.9453     0.1427
  525   10.480   2845.70     1.0630     0.0281     0.2634     0.1048     1.1701     2.6593   167.6800     1.0024     0.1499
  526   10.500   2862.50     1.1431     0.0281     0.2796     0.1050     1.2585     3.2562   168.0000     1.0905     0.1568
  527   10.520   2896.33     1.3340     0.0369     0.2986     0.1052     1.4554     4.2809   168.3200     1.2870     0.1432
  528   10.540   2901.02     1.5881     0.0389     0.3107     0.1054     1.7187     2.6720   168.6400     1.5501     0.1329
  529   10.560   2902.06     2.0188     0.0388     0.2491     0.1056     2.1402     1.9357   168.9600     1.9713     0.0933
  530   10.580   2903.03     2.2675     0.0397     0.1099     0.1058     2.3277     1.7928   169.2800     2.1584     0.0175
  531   10.600   2904.08     2.1785     0.0365     0.0631     0.1060     2.2064     1.6749   169.6000     2.0368    -0.0195
  532   10.620   2905.15     2.1436     0.0402     0.0557     0.1062     2.1689     1.8730   169.9200     1.9990    -0.0229
  533   10.640   2906.24     2.0559     0.0403     0.0660     0.1064     2.0819     1.9411   170.2400     1.9116    -0.0232
  534   10.660   2907.24     1.8586     0.0385     0.0779     0.1066     1.8903     2.0589   170.5600     1.7197    -0.0181
  535   10.680   2908.24     1.7833     0.0380     0.0817     0.1068     1.8164     2.1321   170.8800     1.6455    -0.0170
  536   10.700   2909.20     1.8184     0.0364     0.0918     0.1070     1.8580     2.0273   171.2000     1.6868    -0.0075
  537   10.720   2910.22     1.8363     0.0332     0.0995     0.1072     1.8778     1.8146   171.5200     1.7063    -0.0050
  538   10.740   2911.30     1.6135     0.0346     0.1047     0.1074     1.6553     2.1396   171.8400     1.4835    -0.0052
  539   10.760   2912.38     1.4490     0.0347     0.1253     0.1076     1.4992     2.3799   172.1600     1.3271     0.0091
  540   10.780   2913.41     1.3810     0.0290     0.1499     0.1078     1.4404     2.0954   172.4800     1.2679     0.0266
  541   10.800   2914.42     1.4724     0.0270     0.1638     0.1080     1.5393     1.8665   172.8000     1.3665     0.0374
  542   10.820   2915.39     1.4130     0.0285     0.1739     0.1082     1.4841     1.9581   173.1200     1.3110     0.0467
  543   10.840   2916.40     1.5310     0.0354     0.1960     0.1084     1.6088     2.4768   173.4400     1.4354     0.0535
  544   10.860   2917.38     1.8933     0.0413     0.2178     0.1086     1.9839     2.3987   173.7600     1.8101     0.0593
  545   10.880   2918.44     2.4614     0.0406     0.1688     0.1088     2.5442     1.8078   174.0800     2.3701     0.0376
  546   10.900   2919.50     2.6586     0.0418     0.1054     0.1090     2.7085     1.5869   174.4000     2.5341     0.0038
  547   10.920   2920.51     2.5380     0.0474     0.0854     0.1092     2.5754     1.8637   174.7200     2.4007    -0.0085
  548   10.940   2921.56     2.1106     0.0539     0.0796     0.1094     2.1454     2.3474   175.0400     1.9703    -0.0135
  549   10.960   2922.60     2.0868     0.0522     0.0871     0.1096     2.1212     2.5777   175.3600     1.9459    -0.0142
  550   10.980   2923.62     2.1544     0.0456     0.0902     0.1098     2.1931     2.1351   175.6800     2.0174    -0.0087
  551   11.000   2924.65     2.1058     0.0408     0.0635     0.1100     2.1330     1.9099   176.0000     1.9570    -0.0230
  552   11.020   2925.58     1.9674     0.0411     0.0588     0.1102     1.9922     2.0240   176.3200     1.8159    -0.0281
  553   11.040   2926.63     1.7299     0.0421     0.0690     0.1104     1.7565     2.2982   176.6400     1.5798    -0.0299
  554   11.060   2927.78     1.6403     0.0378     0.1049     0.1106     1.6783     2.3281   176.9600     1.5013    -0.0137
  555   11.080   2928.84     1.8810     0.0356     0.1161     0.1108     1.9289     1.9308   177.2800     1.7517     0.0019
  556   11.100   2929.83     2.0029     0.0390     0.1078     0.1110     2.0488     1.9717   177.6000     1.8712    -0.0009
  557   11.120   2930.82     2.1326     0.0508     0.1287     0.1112     2.1846     2.4403   177.9200     2.0067     0.0062
  558   11.140   2931.85     2.4099     0.0553     0.1363     0.1114     2.4665     2.4160   178.2400     2.2882     0.0102
  559   11.160   2932.96     2.4551     0.0558     0.0989     0.1116     2.5036     2.2560   178.5600     2.3250     0.0016
  560   11.180   2933.96     2.0689     0.0490     0.0739     0.1118     2.1011     2.3628   178.8800     1.9222    -0.0185
  561   11.200   2934.95     1.6350     0.0467     0.0868     0.1120     1.6695     2.7996   179.2000     1.4903    -0.0200
  562   11.220   2935.94     1.3105     0.0471     0.1026     0.1122     1.3507     3.2936   179.5200     1.1712    -0.0139
  563   11.240   2936.99     1.1241     0.0390     0.1258     0.1124     1.1738     3.3143   179.8400     0.9940     0.0061
  564   11.260   2937.99     1.0499     0.0279     0.1505     0.1126     1.1092     2.5866   180.1600     0.9290     0.0309
  565   11.280   2938.99     1.0000     0.0254     0.1837     0.1128     1.0720     2.4978   180.4800     0.8915     0.0657
  566   11.300   2940.13     0.9688     0.0248     0.2197     0.1130     1.0566     2.5590   180.8000     0.8758     0.1097
  567   11.320   2941.15     0.9617     0.0258     0.2540     0.1132     1.0639     2.6806   181.1200     0.8827     0.1473
  568   11.340   2942.14     0.9585     0.0277     0.2849     0.1134     1.0731     2.8878   181.4400     0.8917     0.1788
  569   11.360   2943.15     0.9790     0.0293     0.3171     0.1136     1.1071     3.0000   181.7600     0.9254     0.2070
  570   11.380   2944.16     1.0122     0.0313     0.3496     0.1138     1.1539     3.1233   182.0800     0.9718     0.2300
  571   11.400   2945.18     1.0517     0.0324     0.3755     0.1140     1.2057     3.1365   182.4000     1.0233     0.2468
  572   11.420   2946.23     1.0863     0.0332     0.4003     0.1142     1.2504     3.0804   182.7200     1.0677     0.2591
  573   11.440   2947.15     1.0909     0.0343     0.4263     0.1144     1.2665     3.1477   183.0400     1.0834     0.2802
  574   11.460   2948.16     1.1035     0.0358     0.4580     0.1146     1.2889     3.2555   183.3600     1.1056     0.2956
  575   11.480   2949.21     1.1276     0.0366     0.4975     0.1148     1.3302     3.2753   183.6800     1.1465     0.3205
  576   11.500   2950.31     1.1815     0.0374     0.5327     0.1150     1.4004     3.1656   184.0000     1.2164     0.3340
  577   11.520   2951.38     1.2281     0.0375     0.5615     0.1152     1.4601     3.0549   184.3200     1.2757     0.3426
  578   11.540   2952.39     1.2675     0.0393     0.5873     0.1154     1.5099     3.1316   184.6400     1.3253     0.3484
  579   11.560   2953.46     1.2775     0.0401     0.6127     0.1156     1.5312     3.1408   184.9600     1.3462     0.3628
  580   11.580   2954.41     1.2741     0.0406     0.6280     0.1158     1.5364     3.1698   185.2800     1.3511     0.3764
  581   11.600   2955.41     1.2518     0.0402     0.6405     0.1160     1.5188     3.1850   185.6000     1.3332     0.3899
  582   11.620   2956.47     1.2390     0.0397     0.6486     0.1162     1.5098     3.1992   185.9200     1.3239     0.3994
  583   11.640   2957.53     1.2167     0.0392     0.6684     0.1164     1.4948     3.2197   186.2400     1.3086     0.4170
  584   11.660   2958.60     1.1978     0.0386     0.6760     0.1166     1.4812     3.2225   186.5600     1.2946     0.4311
  585   11.680   2959.60     1.1810     0.0383     0.6805     0.1168     1.4662     3.2368   186.8800     1.2793     0.4394
  586   11.700   2960.66     1.1738     0.0378     0.6834     0.1170     1.4586     3.2232   187.2000     1.2714     0.4414
  587   11.720   2961.67     1.1556     0.0388     0.6955     0.1172     1.4454     3.3579   187.5200     1.2579     0.4553
  588   11.740   2962.64     1.1557     0.0389     0.7111     0.1174     1.4522     3.3879   187.8400     1.2644     0.4655
  589   11.760   2963.63     1.2002     0.0379     0.7171     0.1176     1.5005     3.1577   188.1600     1.3123     0.4553
  590   11.780   2964.60     1.2008     0.0361     0.7275     0.1178     1.5053     2.9938   188.4800     1.3168     0.4611
  591   11.800   2965.61     1.2198     0.0310     0.7293     0.1180     1.5281     2.5443   188.8000     1.3393     0.4600
  592   11.820   2966.69     1.3199     0.0272     0.7186     0.1182     1.6235     2.0604   189.1200     1.4344     0.4216
  593   11.840   2967.81     1.4691     0.0265     0.7061     0.1184     1.7690     1.8098   189.4400     1.5796     0.3775
  594   11.860   2968.82     1.6974     0.0255     0.6591     0.1186     1.9787     1.6071   189.7600     1.7890     0.3088
  595   11.880   2969.83     2.0096     0.0272     0.6264     0.1188     2.2770     1.4277   190.0800     2.0870     0.2486
  596   11.900   2970.78     2.5098     0.0292     0.5016     0.1190     2.7401     1.2540   190.4000     2.5497     0.1697
  597   11.920   2971.78     3.4921     0.0350     0.3555     0.1192     3.6615     1.0799   190.7200     3.4708     0.0830
  598   11.940   2972.84     5.0729     0.0397     0.1801     0.1194     5.1784     0.8602   191.0400     4.9874     0.0273
  599   11.960   2973.96     7.0485     0.0452     0.0007     0.1196     7.0693     0.6880   191.3600     6.8779    -0.0099
  600   11.980   2975.05     8.5683     0.0497    -0.0814     0.1198     8.5390     0.6066   191.6800     8.3473    -0.0227
  601   12.000   2976.12     9.3428     0.0526    -0.0859     0.1200     9.3086     0.5757   192.0000     9.1166    -0.0221
  602   12.020   2977.23     9.8477     0.0581    -0.1040     0.1202     9.8063     0.5997   192.3200     9.6140    -0.0227
  603   12.040   2978.20    10.0833     0.0619    -0.0887     0.1204    10.0439     0.6166   192.6400     9.8512    -0.0218
  604   12.060   2979.26    10.2322     0.0650    -0.0697     0.1206    10.1999     0.6366   192.9600    10.0070    -0.0197
  605   12.080   2980.27    10.2225     0.0696    -0.0682     0.1208    10.1942     0.6806   193.2800    10.0009    -0.0188
  606   12.100   2981.37    10.1337     0.0736    -0.0724     0.1210    10.1044     0.7255   193.6000     9.9108    -0.0192
  607   12.120   2982.38     9.9876     0.0761    -0.0777     0.1212     9.9551     0.7578   193.9200     9.7612    -0.0203
  608   12.140   2983.60     9.7426     0.0752    -0.0740     0.1214     9.7111     0.7717   194.2400     9.5169    -0.0206
  609   12.160   2984.65     9.6582     0.0764    -0.0695     0.1216     9.6282     0.7884   194.5600     9.4336    -0.0205
  610   12.180   2985.68     9.5916     0.0752    -0.0616     0.1218     9.5644     0.7806   194.8800     9.3695    -0.0199
  611   12.200   2986.72     9.5934     0.0692    -0.0606     0.1220     9.5688     0.7210   195.2000     9.3736    -0.0193
  612   12.220   2987.72     9.5858     0.0616    -0.0616     0.1222     9.5594     0.6423   195.5200     9.3639    -0.0198
  613   12.240   2988.74     9.5870     0.0559    -0.0613     0.1224     9.5619     0.5826   195.8400     9.3660    -0.0194
  614   12.260   2989.80     9.5086     0.0594    -0.0714     0.1226     9.4806     0.6222   196.1600     9.2844    -0.0204
  615   12.280   2990.89     9.2632     0.0672    -0.0919     0.1228     9.2271     0.7166   196.4800     9.0307    -0.0231
  616   12.300   2991.99     8.9322     0.0750    -0.0957     0.1230     8.8920     0.8375   196.8000     8.6952    -0.0251
  617   12.320   2993.07     8.7033     0.0797    -0.0940     0.1232     8.6632     0.9073   197.1200     8.4661    -0.0258
  618   12.340   2994.11     8.5148     0.0785    -0.0902     0.1234     8.4762     0.9151   197.4400     8.2788    -0.0260
  619   12.360   2995.13     8.5219     0.0666    -0.0836     0.1236     8.4862     0.7828   197.7600     8.2884    -0.0252
  620   12.380   2996.14     8.5913     0.0614    -0.0805     0.1238     8.5581     0.7152   198.0800     8.3600    -0.0243
  621   12.400   2997.11     8.6327     0.0570    -0.1070     0.1240     8.5917     0.6600   198.4000     8.3933    -0.0264
  622   12.420   2998.22     8.4605     0.0607    -0.1311     0.1242     8.4084     0.7143   198.7200     8.2097    -0.0302
  623   12.440   2999.34     8.1460     0.0663    -0.1435     0.1244     8.0875     0.8074   199.0400     7.8885    -0.0334
  624   12.460   3000.38     7.9140     0.0646    -0.1468     0.1246     7.8521     0.8130   199.3600     7.6528    -0.0355
  625   12.480   3016.30     7.7745     0.0654    -0.0612     0.1248     7.7363     0.8390   199.6800     7.5366    -0.0287
  626   12.500   3039.94     7.7446     0.0618    -0.0038     0.1250     7.7427     0.7940   200.0000     7.5427    -0.0172
  627   12.520   3044.12     7.8023     0.0537    -0.0624     0.1252     7.7857     0.6917   200.3200     7.5854    -0.0217
  628   12.540   3045.20     7.9484     0.0481    -0.1020     0.1254     7.9100     0.6073   200.6400     7.7094    -0.0281
  629   12.560   3046.26     7.9732     0.0481    -0.1164     0.1256     7.9261     0.6027   200.9600     7.7251    -0.0308
  630   12.580   3047.28     7.9617     0.0451    -0.1240     0.1258     7.9105     0.5659   201.2800     7.7092    -0.0321
  631   12.600   3048.32     7.8691     0.0471    -0.1312     0.1260     7.8153     0.5957   201.6000     7.6137    -0.0334
  632   12.620   3049.41     7.6215     0.0566    -0.1365     0.1262     7.5644     0.7343   201.9200     7.3625    -0.0356
  633   12.640   3050.48     7.3729     0.0661    -0.1355     0.1264     7.3157     0.8876   202.2400     7.1135    -0.0369
  634   12.660   3051.53     7.1526     0.0692    -0.1358     0.1266     7.0957     0.9533   202.5600     6.8932    -0.0380
  635   12.680   3052.60     6.9646     0.0677    -0.1338     0.1268     6.9082     0.9718   202.8800     6.7054    -0.0389
  636   12.700   3053.57     6.8930     0.0672    -0.1305     0.1270     6.8375     0.9716   203.2000     6.6343    -0.0391
  637   12.720   3054.61     6.9529     0.0583    -0.1250     0.1272     6.8994     0.8437   203.5200     6.6959    -0.0380
  638   12.740   3055.63     7.1018     0.0467    -0.1238     0.1274     7.0504     0.6620   203.8400     6.8466    -0.0365
  639   12.760   3056.75     6.9992     0.0480    -0.1277     0.1276     6.9457     0.6784   204.1600     6.7415    -0.0378
  640   12.780   3057.77     6.6710     0.0640    -0.1313     0.1278     6.6171     0.9392   204.4800     6.4126    -0.0400
  641   12.800   3058.78     6.2123     0.0770    -0.1374     0.1280     6.1554     1.2045   204.8000     5.9506    -0.0443
  642   12.820   3059.79     5.8083     0.0843    -0.1338     0.1282     5.7514     1.4140   205.1200     5.5463    -0.0475
  643   12.840   3060.88     5.4844     0.0817    -0.1307     0.1284     5.4291     1.4684   205.4400     5.2236    -0.0498
  644   12.860   3061.94     5.4342     0.0831    -0.1236     0.1286     5.3811     1.5355   205.7600     5.1754    -0.0493
  645   12.880   3062.98     5.4378     0.0779    -0.1214     0.1288     5.3872     1.4240   206.0800     5.1811    -0.0481
  646   12.900   3063.99     5.1656     0.0689    -0.1317     0.1290     5.1121     1.3058   206.4000     4.9057    -0.0523
  647   12.920   3064.99     4.6768     0.0831    -0.1406     0.1292     4.6177     1.7203   206.7200     4.4110    -0.0613
  648   12.940   3066.05     4.4968     0.0975    -0.1302     0.1294     4.4407     2.1410   207.0400     4.2337    -0.0621
  649   12.960   3067.17     4.4405     0.0997    -0.1333     0.1296     4.3841     2.2453   207.3600     4.1768    -0.0632
  650   12.980   3068.23     4.0429     0.0871    -0.1118     0.1298     3.9904     2.1394   207.6800     3.7827    -0.0674
  651   13.000   3069.24     3.2628     0.0807    -0.1275     0.1300     3.2107     2.2576   208.0000     3.0027    -0.0847
  652   13.020   3072.49     3.4199     0.0699    -0.0964     0.1302     3.3746     2.3159   208.3200     3.1663    -0.0806
  653   13.040   3077.27     4.0888     0.0562    -0.0627     0.1304     4.0575     1.8606   208.6400     3.8489    -0.0589
  654   13.060   3081.74     4.8951     0.0517    -0.0345     0.1306     4.8775     1.3733   208.9600     4.6686    -0.0372
  655   13.080   3082.76     6.5650     0.0512    -0.0550     0.1308     6.5503     0.8290   209.2800     6.3410    -0.0261
  656   13.100   3083.84     7.4653     0.0531    -0.0607     0.1310     7.4418     0.7295   209.6000     7.2322    -0.0258
  657   13.120   3084.91     7.8399     0.0575    -0.0613     0.1312     7.8138     0.7426   209.9200     7.6038    -0.0254
  658   13.140   3085.90     7.8721     0.0652    -0.0599     0.1314     7.8469     0.8231   210.2400     7.6367    -0.0251
  659   13.160   3086.97     7.5085     0.0705    -0.0601     0.1316     7.4834     0.9387   210.5600     7.2729    -0.0263
  660   13.180   3088.03     6.9950     0.0774    -0.0588     0.1318     6.9697     1.0772   210.8800     6.7588    -0.0284
  661   13.200   3089.09     6.5769     0.0876    -0.0535     0.1320     6.5535     1.3322   211.2000     6.3423    -0.0296
  662   13.220   3090.15     6.1759     0.1287    -0.0486     0.1322     6.1551     2.0274   211.5200     5.9436    -0.0306
  663   13.240   3091.16     5.5102     0.1210    -0.0461     0.1324     5.4904     2.0850   211.8400     5.2785    -0.0340
  664   13.260   3092.16     4.3437     0.1086    -0.0451     0.1326     4.3251     2.4604   212.1600     4.1129    -0.0431
  665   13.280   3093.16     3.2480     0.0931    -0.0457     0.1328     3.2285     2.5296   212.4800     3.0160    -0.0595
  666   13.300   3094.17     2.5706     0.0979    -0.0143     0.1330     2.5569     3.4670   212.8000     2.3441    -0.0706
  667   13.320   3095.26     2.3824     0.1068     0.0091     0.1332     2.3840     4.6492   213.1200     2.1709    -0.0598
  668   13.340   3096.34     3.0209     0.0980     0.0420     0.1334     3.0339     3.5952   213.4400     2.8205    -0.0366
  669   13.360   3097.35     3.2443     0.0782     0.0443     0.1336     3.2673     2.3743   213.7600     3.0535    -0.0260
  670   13.380   3098.37     2.7423     0.0707     0.0293     0.1338     2.7518     2.4027   214.0800     2.5377    -0.0439
  671   13.400   3099.35     2.2645     0.0655     0.0580     0.1340     2.2869     2.6829   214.4000     2.0725    -0.0389
  672   13.420   3100.40     1.8593     0.0635     0.0647     0.1342     1.8826     3.3287   214.7200     1.6679    -0.0470
  673   13.440   3101.48     1.8443     0.0518     0.0900     0.1344     1.8801     2.8409   215.0400     1.6650    -0.0297
  674   13.460   3102.52     1.8542     0.0399     0.0980     0.1346     1.8938     2.1285   215.3600     1.6784    -0.0240
  675   13.480   3103.54     1.7565     0.0438     0.1157     0.1348     1.8018     2.4326   215.6800     1.5861    -0.0169
  676   13.500   3104.56     1.7494     0.0368     0.1264     0.1350     1.8007     2.1523   216.0000     1.5847    -0.0082
  677   13.520   3105.67     1.8363     0.0333     0.1381     0.1352     1.8936     1.8400   216.3200     1.6772     0.0007
  678   13.540   3106.71     1.8673     0.0340     0.1399     0.1354     1.9257     1.8240   216.6400     1.7091     0.0022
  679   13.560   3107.73     1.8063     0.0378     0.1525     0.1356     1.8688     2.0922   216.9600     1.6518     0.0080
  680   13.580   3108.70     1.8560     0.0398     0.1640     0.1358     1.9222     2.2056   217.2800     1.7049     0.0128
  681   13.600   3109.75     2.0352     0.0418     0.1790     0.1360     2.1081     2.1337   217.6000     1.8905     0.0198
  682   13.620   3110.82     2.1366     0.0490     0.1865     0.1362     2.2165     2.2923   217.9200     1.9986     0.0271
  683   13.640   3111.85     2.0868     0.0492     0.1960     0.1364     2.1665     2.3563   218.2400     1.9483     0.0275
  684   13.660   3112.84     1.9631     0.0429     0.1953     0.1366     2.0448     2.1263   218.5600     1.8262     0.0317
  685   13.680   3113.87     2.0196     0.0453     0.2100     0.1368     2.1082     2.2547   218.8800     1.8893     0.0393
  686   13.700   3114.95     1.8703     0.0462     0.2026     0.1370     1.9544     2.4631   219.2000     1.7352     0.0364
  687   13.720   3115.92     1.9272     0.0455     0.2209     0.1372     2.0180     2.4132   219.5200     1.7985     0.0439
  688   13.740   3116.99     2.1483     0.0516     0.2388     0.1374     2.2456     2.4244   219.8400     2.0258     0.0465
  689   13.760   3118.00     2.5316     0.0573     0.2381     0.1376     2.6359     2.2694   220.1600     2.4158     0.0459
  690   13.780   3118.97     2.7438     0.0559     0.2143     0.1378     2.8354     2.0400   220.4800     2.6149     0.0307
  691   13.800   3120.00     2.7143     0.0496     0.1975     0.1380     2.7998     1.8247   220.8000     2.5790     0.0254
  692   13.820   3121.08     2.4213     0.0546     0.1955     0.1382     2.5012     2.2620   221.1200     2.2800     0.0228
  693   13.840   3122.14     2.0716     0.0512     0.1995     0.1384     2.1574     2.4556   221.4400     1.9360     0.0341
  694   13.860   3123.11     1.8444     0.0428     0.2048     0.1386     1.9265     2.3228   221.7600     1.7047     0.0334
  695   13.880   3124.08     1.7741     0.0385     0.2301     0.1388     1.8664     2.1355   222.0800     1.6443     0.0492
  696   13.900   3125.14     1.5939     0.0340     0.2380     0.1390     1.6929     2.0479   222.4000     1.4705     0.0658
  697   13.920   3126.16     1.4424     0.0326     0.2571     0.1392     1.5464     2.1477   222.7200     1.3237     0.0820
  698   13.940   3127.26     1.3397     0.0337     0.2924     0.1394     1.4583     2.4406   223.0400     1.2352     0.1158
  699   13.960   3128.27     1.4512     0.0338     0.3251     0.1396     1.5840     2.4940   223.3600     1.3606     0.1298
  700   13.980   3129.29     1.8050     0.0392     0.3426     0.1398     1.9502     2.3691   223.6800     1.7265     0.1199
  701   14.000   3130.32     2.1123     0.0542     0.3101     0.1400     2.2524     2.6672   224.0000     2.0284     0.0956
  702   14.020   3131.33     2.2928     0.0562     0.2864     0.1402     2.4161     2.5280   224.3200     2.1917     0.0700
  703   14.040   3132.43     2.4439     0.0576     0.2551     0.1404     2.5555     2.3546   224.6400     2.3309     0.0540
  704   14.060   3133.47     2.3276     0.0565     0.2245     0.1406     2.4262     2.2624   224.9600     2.2012     0.0427
  705   14.080   3134.51     1.7973     0.0539     0.2500     0.1408     1.8978     2.7133   225.2800     1.6726     0.0594
  706   14.100   3135.48     1.5318     0.0498     0.2720     0.1410     1.6405     3.0914   225.6000     1.4149     0.0833
  707   14.120   3136.51     1.6919     0.0489     0.3043     0.1412     1.8165     3.1365   225.9200     1.5906     0.0979
  708   14.140   3137.57     1.8773     0.0396     0.3089     0.1414     2.0091     2.1112   226.2400     1.7829     0.0967
  709   14.160   3138.62     1.7225     0.0357     0.2981     0.1416     1.8467     2.0635   226.5600     1.6202     0.0952
  710   14.180   3139.66     1.4331     0.0334     0.3264     0.1418     1.5666     2.3222   226.8800     1.3397     0.1315
  711   14.200   3140.70     1.2505     0.0357     0.3559     0.1420     1.3931     2.8604   227.2000     1.1659     0.1694
  712   14.220   3141.69     1.2921     0.0373     0.3802     0.1422     1.4493     2.9216   227.5200     1.2218     0.1901
  713   14.240   3142.70     1.5570     0.0386     0.4034     0.1424     1.7220     2.6715   227.8400     1.4941     0.1676
  714   14.260   3143.72     1.8158     0.0374     0.3979     0.1426     1.9862     2.2195   228.1600     1.7581     0.1499
  715   14.280   3144.75     2.1621     0.0337     0.3773     0.1428     2.3282     1.6410   228.4800     2.0997     0.1204
  716   14.300   3145.81     2.2497     0.0418     0.3188     0.1430     2.3878     1.9508   228.8000     2.1590     0.0860
  717   14.320   3146.84     2.1723     0.0531     0.3429     0.1432     2.3117     2.4734   229.1200     2.0825     0.0906
  718   14.340   3147.89     2.5964     0.0652     0.3502     0.1434     2.7445     2.6504   229.4400     2.5150     0.0835
  719   14.360   3148.87     3.3593     0.0868     0.3160     0.1436     3.5001     2.7002   229.7600     3.2703     0.0588
  720   14.380   3149.91     3.6677     0.0803     0.2011     0.1438     3.7652     2.1815   230.0800     3.5351     0.0249
  721   14.400   3158.90     3.2205     0.0715     0.1720     0.1440     3.2947     2.8469   230.4000     3.0643     0.0104
  722   14.420   3182.00     2.7206     0.0661     0.1583     0.1442     2.7891     2.6331   230.7200     2.5584     0.0070
  723   14.440   3192.25     2.2716     0.0701     0.2139     0.1444     2.3517     2.9321   231.0400     2.1206     0.0219
  724   14.460   3193.24     2.2330     0.0645     0.2267     0.1446     2.3268     2.9144   231.3600     2.0954     0.0375
  725   14.480   3194.28     2.5069     0.0626     0.2480     0.1448     2.6045     2.6056   231.6800     2.3728     0.0369
  726   14.500   3195.35     2.6143     0.0678     0.2659     0.1450     2.7271     2.5683   232.0000     2.4951     0.0495
  727   14.520   3196.43     2.4312     0.0671     0.2867     0.1452     2.5488     2.6893   232.3200     2.3164     0.0582
  728   14.540   3197.51     2.3752     0.0611     0.3076     0.1454     2.5038     2.6453   232.6400     2.2712     0.0708
  729   14.560   3198.54     2.2484     0.0651     0.2796     0.1456     2.3736     2.9232   232.9600     2.1406     0.0712
  730   14.580   3199.54     1.9551     0.0702     0.2935     0.1458     2.0726     3.5891   233.2800     1.8393     0.0729
  731   14.600   3200.58     1.7830     0.0638     0.3125     0.1460     1.9138     3.5486   233.6000     1.6802     0.0985
  732   14.620   3201.59     1.7464     0.0567     0.3167     0.1462     1.8764     3.2462   233.9200     1.6425     0.0994
  733   14.640   3202.71     1.7826     0.0469     0.3368     0.1464     1.9238     2.6064   234.2400     1.6896     0.1125
  734   14.660   3203.69     1.5215     0.0399     0.3507     0.1466     1.6660     2.5776   234.5600     1.4314     0.1382
  735   14.680   3204.73     1.2457     0.0397     0.3659     0.1468     1.3930     2.9323   234.8800     1.1581     0.1762
  736   14.700   3205.74     1.2156     0.0455     0.4131     0.1470     1.3828     3.7397   235.2000     1.1476     0.2187
  737   14.720   3206.67     1.4523     0.0453     0.4447     0.1472     1.6356     3.1135   235.5200     1.4001     0.2067
  738   14.740   3207.74     1.8778     0.0431     0.4471     0.1474     2.0655     2.3063   235.8400     1.8297     0.1639
  739   14.760   3208.84     1.9323     0.0446     0.3593     0.1476     2.0974     2.2434   236.1600     1.8613     0.1316
  740   14.780   3209.87     1.5526     0.0461     0.3269     0.1478     1.6873     2.8730   236.4800     1.4508     0.1199
  741   14.800   3210.87     1.2180     0.0458     0.3622     0.1480     1.3649     3.4613   236.8000     1.1281     0.1796
  742   14.820   3211.81     1.1345     0.0445     0.4068     0.1482     1.2990     3.8693   237.1200     1.0619     0.2293
  743   14.840   3212.83     1.1515     0.0281     0.4469     0.1484     1.3336     2.4558   237.4400     1.0962     0.2601
  744   14.860   3213.88     1.1717     0.0275     0.4896     0.1486     1.3710     2.3684   237.7600     1.1332     0.2875
  745   14.880   3215.00     1.2991     0.0371     0.5385     0.1488     1.5177     3.0599   238.0800     1.2796     0.2905
  746   14.900   3216.09     1.9518     0.0400     0.5776     0.1490     2.1944     2.0400   238.4000     1.9560     0.2198
  747   14.920   3217.06     2.4668     0.0445     0.5622     0.1492     2.7075     1.9371   238.7200     2.4688     0.1718
  748   14.940   3218.12     2.5304     0.0461     0.2917     0.1494     2.7278     1.8249   239.0400     2.4887     0.1288
  749   14.960   3219.19     2.0620     0.0484     0.2655     0.1496     2.1548     2.3311   239.3600     1.9155     0.0378
  750   14.980   3220.21     1.5428     0.0494     0.3035     0.1498     1.6692     3.2272   239.6800     1.4296     0.1061
  751   15.000   3221.28     1.2756     0.0496     0.3531     0.1500     1.4154     3.7141   240.0000     1.1754     0.1558
  752   15.020   3222.22     1.2726     0.0384     0.3919     0.1502     1.4314     3.0336   240.3200     1.1911     0.1913
  753   15.040   3223.23     1.3120     0.0308     0.4193     0.1504     1.4837     2.3782   240.6400     1.2431     0.2078
  754   15.060   3224.25     1.3352     0.0301     0.4514     0.1506     1.5174     2.2490   240.9600     1.2764     0.2221
  755   15.080   3225.31     1.2266     0.0298     0.4677     0.1508     1.4208     2.3952   241.2800     1.1795     0.2643
  756   15.100   3226.41     1.1393     0.0290     0.4991     0.1510     1.3458     2.5373   241.6000     1.1042     0.3085
  757   15.120   3227.47     1.0926     0.0293     0.5216     0.1512     1.3093     2.6688   241.9200     1.0674     0.3419
  758   15.140   3228.52     1.0569     0.0295     0.5436     0.1514     1.2810     2.7819   242.2400     1.0388     0.3680
  759   15.160   3229.53     1.0210     0.0292     0.5708     0.1516     1.2562     2.8616   242.5600     1.0136     0.4028
  760   15.180   3230.54     0.9959     0.0296     0.6037     0.1518     1.2459     2.9713   242.8800     1.0030     0.4421
  761   15.200   3231.43     0.9689     0.0296     0.6237     0.1520     1.2280     3.0112   243.2000     0.9848     0.4721
  762   15.220   3232.47     0.9370     0.0292     0.6460     0.1522     1.2053     3.0921   243.5200     0.9618     0.5058
  763   15.240   3233.48     0.9212     0.0299     0.6553     0.1524     1.1943     3.2348   243.8400     0.9505     0.5239
  764   15.260   3234.60     0.8957     0.0294     0.6808     0.1526     1.1783     3.2748   244.1600     0.9341     0.5570
  765   15.280   3235.65     0.8754     0.0294     0.7014     0.1528     1.1677     3.3514   244.4800     0.9233     0.5883
  766   15.300   3236.66     0.8653     0.0300     0.7171     0.1530     1.1640     3.4629   244.8000     0.9192     0.6073
  767   15.320   3237.68     0.8675     0.0306     0.7384     0.1532     1.1744     3.5485   245.1200     0.9293     0.6214
  768   15.340   3238.61     0.8788     0.0297     0.7543     0.1534     1.1934     3.4000   245.4400     0.9479     0.6284
  769   15.360   3239.63     0.8889     0.0292     0.7607     0.1536     1.2085     3.2873   245.7600     0.9627     0.6309
  770   15.380   3240.69     0.9070     0.0277     0.7696     0.1538     1.2290     3.0680   246.0800     0.9829     0.6235
  771   15.400   3241.71     0.9033     0.0263     0.7857     0.1540     1.2298     2.9102   246.4000     0.9834     0.6340
  772   15.420   3242.80     0.9060     0.0270     0.8043     0.1542     1.2408     2.9865   246.7200     0.9941     0.6469
  773   15.440   3243.85     0.9727     0.0290     0.8191     0.1544     1.3152     3.0864   247.0400     1.0682     0.6197
  774   15.460   3244.89     1.2107     0.0283     0.8032     0.1546     1.5541     2.5100   247.3600     1.3068     0.5096
  775   15.480   3245.93     1.5747     0.0253     0.6833     0.1548     1.8804     1.7780   247.6800     1.6328     0.3531
  776   15.500   3246.97     1.9885     0.0288     0.5808     0.1550     2.2444     1.5670   248.0000     1.9964     0.2284
  777   15.520   3248.00     2.1406     0.0284     0.5268     0.1552     2.3705     1.3374   248.3200     2.1221     0.1847
  778   15.540   3248.97     1.9629     0.0277     0.4979     0.1554     2.1720     1.3362   248.6400     1.9234     0.1783
  779   15.560   3250.01     1.6711     0.0287     0.5052     0.1556     1.8826     1.6243   248.9600     1.6336     0.2133
  780   15.580   3251.08     1.4296     0.0301     0.5378     0.1558     1.6479     1.9836   249.2800     1.3987     0.2605
  781   15.600   3252.15     1.1821     0.0312     0.5821     0.1560     1.4196     2.6084   249.6000     1.1700     0.3501
  782   15.620   3253.16     1.1063     0.0311     0.6292     0.1562     1.3632     2.8142   249.9200     1.1133     0.4091
  783   15.640   3254.18     1.1492     0.0321     0.6511     0.1564     1.4234     2.8066   250.2400     1.1731     0.4231
  784   15.660   3255.24     1.1644     0.0347     0.6530     0.1566     1.4389     2.9793   250.5600     1.1884     0.4183
  785   15.680   3256.22     1.1536     0.0355     0.6532     0.1568     1.4297     3.0679   250.8800     1.1789     0.4247
  786   15.700   3257.20     1.1219     0.0365     0.6396     0.1570     1.3880     3.2085   251.2000     1.1368     0.4192
  787   15.720   3258.17     1.0788     0.0379     0.6508     0.1572     1.3531     3.4822   251.5200     1.1016     0.4502
  788   15.740   3259.24     1.0860     0.0409     0.6688     0.1574     1.3663     3.7754   251.8400     1.1144     0.4575
  789   15.760   3260.33     1.2133     0.0330     0.6953     0.1576     1.5007     2.8015   252.1600     1.2485     0.4222
  790   15.780   3261.40     1.3381     0.0253     0.6997     0.1578     1.6310     1.9052   252.4800     1.3785     0.3914
  791   15.800   3262.41     1.4367     0.0234     0.6667     0.1580     1.7284     1.6545   252.8000     1.4756     0.3637
  792   15.820   3263.46     1.5464     0.0231     0.6192     0.1582     1.7971     1.6257   253.1200     1.5440     0.2851
  793   15.840   3264.39     2.4805     0.0255     0.6946     0.1584     2.7642     1.1899   253.4400     2.5108     0.2093
  794   15.860   3265.43     4.3579     0.0301     0.4764     0.1586     4.6124     0.7651   253.7600     4.3587     0.1058
  795   15.880   3266.46     5.6420     0.0310     0.2173     0.1588     5.7538     0.5632   254.0800     5.4997     0.0198
  796   15.900   3267.55     5.9647     0.0338     0.1952     0.1590     6.0487     0.5698   254.4000     5.7943     0.0071
  797   15.920   3268.62     5.9985     0.0358     0.2029     0.1592     6.0794     0.5971   254.7200     5.8247     0.0057
  798   15.940   3269.69     6.2003     0.0362     0.2152     0.1594     6.2891     0.5905   255.0400     6.0341     0.0086
  799   15.960   3270.80     6.6028     0.0345     0.1840     0.1596     6.6844     0.5327   255.3600     6.4291     0.0054
  800   15.980   3271.91     7.0662     0.0304     0.1769     0.1598     7.1419     0.4386   255.6800     6.8862     0.0030
  801   16.000   3272.97     7.5330     0.0283     0.1427     0.1600     7.5998     0.3820   256.0000     7.3438    -0.0001
  802   16.020   3273.94     7.9757     0.0291     0.0731     0.1602     8.0165     0.3665   256.3200     7.7602    -0.0081
  803   16.040   3274.98     8.4731     0.0338     0.0448     0.1604     8.4946     0.4010   256.6400     8.2380    -0.0133
  804   16.060   3276.07     8.8998     0.0381     0.0290     0.1606     8.9117     0.4290   256.9600     8.6547    -0.0153
  805   16.080   3277.16     9.3066     0.0381     0.0505     0.1608     9.3252     0.4127   257.2800     9.0679    -0.0129
  806   16.100   3278.29     9.9108     0.0391     0.0646     0.1610     9.9364     0.4009   257.6000     9.6788    -0.0103
  807   16.120   3279.39    10.6635     0.0398     0.0900     0.1612    10.6977     0.3794   257.9200    10.4397    -0.0077
  808   16.140   3280.49    11.6076     0.0450     0.0779     0.1614    11.6467     0.3917   258.2400    11.3885    -0.0060
  809   16.160   3281.59    12.6454     0.0482     0.0048     0.1616    12.6572     0.3849   258.5600    12.3986    -0.0108
  810   16.180   3282.56    13.4665     0.0583    -0.0092     0.1618    13.4603     0.4386   258.8800    13.2014    -0.0134
  811   16.200   3283.62    14.3088     0.0558     0.0060     0.1620    14.3115     0.3945   259.2000    14.0523    -0.0111
  812   16.220   3284.70    14.7324     0.0558     0.0235     0.1622    14.7391     0.3802   259.5200    14.4796    -0.0101
  813   16.240   3285.92    15.0227     0.0564     0.0596     0.1624    15.0437     0.3752   259.8400    14.7839    -0.0076
  814   16.260   3287.02    14.9899     0.0522     0.0493     0.1626    15.0146     0.3480   260.1600    14.7545    -0.0070
  815   16.280   3288.11    14.8821     0.0461     0.0467     0.1628    14.8982     0.3206   260.4800    14.6377    -0.0085
  816   16.300   3313.20    14.3001     0.0412     0.0635     0.1630    14.3244     0.2998   260.8000    14.0636    -0.0075
  817   16.320   3337.80    14.5471     0.0423     0.0383     0.1632    14.5727     0.2905   261.1200    14.3116    -0.0071
  818   16.340   3338.85    14.1824     0.0452     0.0339     0.1634    14.1915     0.3166   261.4400    13.9301    -0.0102
  819   16.360   3339.93    13.6854     0.0482     0.0576     0.1636    13.7059     0.3500   261.7600    13.4441    -0.0085
  820   16.380   3340.94    13.4009     0.0510     0.0718     0.1638    13.4293     0.3792   262.0800    13.1672    -0.0073
  821   16.400   3342.04    12.7933     0.0548     0.0837     0.1640    12.8276     0.4234   262.4000    12.5652    -0.0065
  822   16.420   3343.14    11.8213     0.0564     0.0966     0.1642    11.8605     0.4703   262.7200    11.5978    -0.0061
  823   16.440   3344.25    10.8953     0.0564     0.1011     0.1644    10.9374     0.5055   263.0400    10.6744    -0.0060
  824   16.460   3345.33     9.8861     0.0598     0.1034     0.1646     9.9295     0.5850   263.3600     9.6661    -0.0063
  825   16.480   3346.30     8.9945     0.0610     0.0982     0.1648     9.0370     0.6623   263.6800     8.7733    -0.0073
  826   16.500   3347.39     8.2511     0.0596     0.0978     0.1650     8.2919     0.7139   264.0000     8.0279    -0.0084
  827   16.520   3348.51     7.9790     0.0597     0.0504     0.1652     8.0096     0.7463   264.3200     7.7452    -0.0119
  828   16.540   3349.55     8.0803     0.0411    -0.0191     0.1654     8.0819     0.5119   264.6400     7.8173    -0.0207
  829   16.560   3350.56     8.4443     0.0255    -0.0741     0.1656     8.4230     0.3053   264.9600     8.1580    -0.0265
  830   16.580   3351.63     9.1249     0.0192    -0.1000     0.1658     9.0829     0.2152   265.2800     8.8177    -0.0301
  831   16.600   3352.71    10.0590     0.0221    -0.1241     0.1660    10.0152     0.2221   265.6000     9.7496    -0.0277
  832   16.620   3353.85    11.0277     0.0275    -0.2406     0.1662    10.9404     0.2520   265.9200    10.6745    -0.0350
  833   16.640   3354.92    11.8860     0.0300    -0.2130     0.1664    11.7888     0.2553   266.2400    11.5226    -0.0345
  834   16.660   3355.95    12.5857     0.0286    -0.1934     0.1666    12.5049     0.2287   266.5600    12.2383    -0.0293
  835   16.680   3357.00    12.9257     0.0315    -0.1899     0.1668    12.8447     0.2439   266.8800    12.5778    -0.0286
  836   16.700   3358.12    13.1811     0.0374    -0.1591     0.1670    13.1084     0.2848   267.2000    12.8412    -0.0265
  837   16.720   3359.21    13.6351     0.0388    -0.1052     0.1672    13.5806     0.2852   267.5200    13.3131    -0.0223
  838   16.740   3360.35    14.2954     0.0402    -0.0570     0.1674    14.2650     0.2824   267.8400    13.9971    -0.0171
  839   16.760   3361.39    14.9192     0.0470    -0.0152     0.1676    14.9068     0.3153   268.1600    14.6387    -0.0135
  840   16.780   3362.46    15.4092     0.0569     0.0088     0.1678    15.4105     0.3695   268.4800    15.1420    -0.0109
  841   16.800   3363.58    15.7013     0.0660     0.0195     0.1680    15.7080     0.4202   268.8000    15.4392    -0.0099
  842   16.820   3364.73    15.9797     0.0724     0.0310     0.1682    15.9914     0.4534   269.1200    15.7223    -0.0089
  843   16.840   3365.81    16.3744     0.0747     0.0447     0.1684    16.3910     0.4613   269.4400    16.1215    -0.0080
  844   16.860   3366.89    17.0608     0.0786     0.0633     0.1686    17.0844     0.4684   269.7600    16.8147    -0.0067
  845   16.880   3367.97    17.8837     0.0826     0.0832     0.1688    17.9152     0.4684   270.0800    17.6451    -0.0053
  846   16.900   3369.10    18.8500     0.0828     0.1084     0.1690    18.8921     0.4470   270.4000    18.6217    -0.0037
  847   16.920   3370.25    20.0010     0.0834     0.1291     0.1692    20.0525     0.4256   270.7200    19.7818    -0.0024
  848   16.940   3371.40    21.1994     0.0839     0.1426     0.1694    21.2568     0.3995   271.0400    20.9858    -0.0016
  849   16.960   3372.58    22.0631     0.0854     0.1536     0.1696    22.1266     0.3866   271.3600    21.8553    -0.0008
  850   16.980   3373.75    22.8414     0.0875     0.1517     0.1698    22.9056     0.3830   271.6800    22.6339    -0.0007
  851   17.000   3374.81    23.3571     0.0854     0.1440     0.1700    23.4193     0.3656   272.0000    23.1473    -0.0009
  852   17.020   3375.95    23.6997     0.0840     0.1262     0.1702    23.7556     0.3550   272.3200    23.4832    -0.0016
  853   17.040   3377.04    23.9526     0.0826     0.1286     0.1704    24.0047     0.3454   272.6400    23.7320    -0.0020
  854   17.060   3378.16    24.2060     0.0836     0.1420     0.1706    24.2643     0.3465   272.9600    23.9913    -0.0013
  855   17.080   3379.29    24.6220     0.0859     0.1463     0.1708    24.6843     0.3492   273.2800    24.4110    -0.0009
  856   17.100   3380.40    25.0513     0.0843     0.1286     0.1710    25.1072     0.3372   273.6000    24.8336    -0.0015
  857   17.120   3381.46    25.2968     0.0809     0.1160     0.1712    25.3486     0.3201   273.9200    25.0747    -0.0019
  858   17.140   3382.50    25.2800     0.0827     0.0815     0.1714    25.3190     0.3271   274.2400    25.0448    -0.0031
  859   17.160   3383.44    24.9567     0.0840     0.0588     0.1716    24.9842     0.3341   274.5600    24.7096    -0.0043
  860   17.180   3384.37    24.1238     0.0842     0.0550     0.1718    24.1457     0.3447   274.8800    23.8708    -0.0050
  861   17.200   3385.36    22.6645     0.0843     0.0613     0.1720    22.6895     0.3650   275.2000    22.4143    -0.0050
  862   17.220   3386.39    20.8330     0.0850     0.0679     0.1722    20.8600     0.4033   275.5200    20.5844    -0.0053
  863   17.240   3387.52    18.6336     0.0818     0.0818     0.1724    18.6652     0.4334   275.8400    18.3894    -0.0053
  864   17.260   3388.62    16.9755     0.0785     0.0988     0.1726    17.0137     0.4608   276.1600    16.7375    -0.0049
  865   17.280   3389.69    15.8581     0.0721     0.1239     0.1728    15.9083     0.4530   276.4800    15.6318    -0.0034
  866   17.300   3390.70    15.2027     0.0640     0.1416     0.1730    15.2587     0.4208   276.8000    14.9819    -0.0026
  867   17.320   3391.79    15.1947     0.0582     0.1679     0.1732    15.2612     0.3827   277.1200    14.9841    -0.0010
  868   17.340   3392.95    15.4093     0.0493     0.1336     0.1734    15.4716     0.3203   277.4400    15.1942    -0.0016
  869   17.360   3394.07    15.3108     0.0436     0.0552     0.1736    15.3435     0.2839   277.7600    15.0657    -0.0064
  870   17.380   3395.19    15.1763     0.0485    -0.0037     0.1738    15.1839     0.3180   278.0800    14.9058    -0.0105
  871   17.400   3396.22    15.0973     0.0633    -0.0039     0.1740    15.0951     0.4188   278.4000    14.8167    -0.0121
  872   17.420   3397.38    15.0975     0.0819     0.0012     0.1742    15.0980     0.5432   278.7200    14.8192    -0.0117
  873   17.440   3398.55    15.5719     0.1063     0.0014     0.1744    15.5720     0.6932   279.0400    15.2930    -0.0114
  874   17.460   3399.74    17.0174     0.1147    -0.0030     0.1746    17.0165     0.6731   279.3600    16.7371    -0.0106
  875   17.480   3400.86    19.0969     0.1162     0.0141     0.1748    19.0987     0.6088   279.6800    18.8190    -0.0091
  876   17.500   3402.00    21.9548     0.0950     0.0022     0.1750    21.9662     0.4413   280.0000    21.6862    -0.0068
  877   17.520   3403.12    25.4442     0.0688    -0.1684     0.1752    25.4092     0.2814   280.3200    25.1289    -0.0103
  878   17.540   3404.25    28.7135     0.0737    -0.2578     0.1754    28.6001     0.2652   280.6400    28.3195    -0.0157
  879   17.560   3405.35    31.7509     0.0887    -0.0404     0.1756    31.7188     0.2885   280.9600    31.4379    -0.0080
  880   17.580   3406.45    33.9334     0.1091    -0.0469     0.1758    33.9172     0.3230   281.2800    33.6359    -0.0064
  881   17.600   3407.46    35.2046     0.1294    -0.1643     0.1760    35.1574     0.3673   281.6000    34.8758    -0.0083
  882   17.620   3408.46    35.9070     0.1448    -0.2016     0.1762    35.8210     0.4031   281.9200    35.5391    -0.0107
  883   17.640   3409.51    36.3078     0.1525    -0.1431     0.1764    36.2382     0.4199   282.2400    35.9560    -0.0095
  884   17.660   3410.54    36.8618     0.1555    -0.0368     0.1766    36.8323     0.4251   282.5600    36.5497    -0.0068
  885   17.680   3411.59    37.6169     0.1564     0.0536     0.1768    37.6292     0.4192   282.8800    37.3463    -0.0040
  886   17.700   3412.61    38.4891     0.1654     0.1004     0.1770    38.5258     0.4339   283.2000    38.2426    -0.0023
  887   17.720   3413.62    38.9433     0.1793     0.1161     0.1772    38.9897     0.4604   283.5200    38.7062    -0.0017
  888   17.740   3414.64    38.9700     0.1967     0.1356     0.1774    39.0231     0.5051   283.8400    38.7393    -0.0013
  889   17.760   3415.75    38.5486     0.2146     0.1387     0.1776    38.6033     0.5568   284.1600    38.3192    -0.0012
  890   17.780   3416.73    38.1005     0.2194     0.1402     0.1778    38.1605     0.5763   284.4800    37.8760    -0.0009
  891   17.800   3417.77    37.1504     0.2156     0.1632     0.1780    37.2141     0.5803   284.8000    36.9293    -0.0007
  892   17.820   3418.77    36.2440     0.2125     0.1731     0.1782    36.3169     0.5848   285.1200    36.0317    -0.0001
  893   17.840   3419.81    35.8627     0.2100     0.1738     0.1784    35.9351     0.5851   285.4400    35.6497    -0.0002
  894   17.860   3420.85    36.0203     0.2029     0.1688     0.1786    36.0924     0.5640   285.7600    35.8066    -0.0002
  895   17.880   3421.85    36.3801     0.1991     0.1713     0.1788    36.4511     0.5471   286.0800    36.1650    -0.0003
  896   17.900   3422.89    36.2530     0.2063     0.1655     0.1790    36.3238     0.5688   286.4000    36.0374    -0.0003
  897   17.920   3423.92    35.5471     0.2144     0.1686     0.1792    35.6190     0.6020   286.7200    35.3323    -0.0002
  898   17.940   3424.97    34.6160     0.2146     0.1541     0.1794    34.6824     0.6184   287.0400    34.3953    -0.0006
  899   17.960   3426.02    33.3982     0.2091     0.1442     0.1796    33.4604     0.6235   287.3600    33.1731    -0.0009
  900   17.980   3427.00    32.1780     0.1998     0.1419     0.1798    32.2376     0.6183   287.6800    31.9499    -0.0012
  901   18.000   3427.97    31.0415     0.1936     0.1398     0.1800    31.1002     0.6223   288.0000    30.8122    -0.0013
  902   18.020   3428.97    29.7492     0.1872     0.1395     0.1802    29.8084     0.6256   288.3200    29.5201    -0.0013
  903   18.040   3429.99    28.1391     0.1751     0.1351     0.1804    28.1969     0.6182   288.6400    27.9083    -0.0015
  904   18.060   3431.00    26.3234     0.1634     0.1317     0.1806    26.3790     0.6089   288.9600    26.0901    -0.0018
  905   18.080   3431.99    24.6787     0.1517     0.1297     0.1808    24.7331     0.5996   289.2800    24.4438    -0.0021
  906   18.100   3433.00    23.7343     0.1503     0.1332     0.1810    23.7893     0.6278   289.6000    23.4997    -0.0021
  907   18.120   3433.99    23.7390     0.1430     0.1478     0.1812    23.7989     0.6054   289.9200    23.5090    -0.0016
  908   18.140   3435.00    24.7140     0.1252     0.1564     0.1814    24.7802     0.5111   290.2400    24.4899    -0.0010
  909   18.160   3457.13    27.2995     0.1092     0.1410     0.1816    27.3610     0.4387   290.5600    27.0704    -0.0012
  910   18.180   3482.17    30.0379     0.1025     0.1256     0.1818    30.0929     0.4119   290.8800    29.8020    -0.0017
  911   18.200   3494.75    33.2497               -0.0433     0.1820    33.2601              291.2000    32.9689    -0.0048
  912   18.220   3495.79    36.6928               -0.0899     0.1822    36.6550              291.5200    36.3634    -0.0075
  913   18.240   3496.93    40.2946               -0.0551     0.1824    40.2680              291.8400    39.9762    -0.0062
  914   18.260   3498.05    44.0454               -0.0204     0.1826    44.0288              292.1600    43.7366    -0.0051
  915   18.280   3499.14    48.5125                0.0133     0.1828    48.5224              292.4800    48.2299    -0.0033
  916   18.290   3499.66    50.4980                           0.1829    50.5009              292.6362    50.2082    -0.0035
 
 
