

 Program UNIPLOT                         version 05.36.02
 _______________
 (c) Fugro Netherlands Marine, Nootdorp, The Netherlands


 ASCII representation of data plotted on a graph.

 This ASCII file presents data interpolated to values per fixed depth interval.
 The data are corrected for the depth-offset differences between the various 
 transducers in the penetrometer.

 The records at the start of penetration may include no values or anomalous
 values where a depth offset implies incomplete penetration of a particular
 sensor into the ground.

 The records at the end of penetration may include no values for data channels
 where the transducer did not reach this depth.

 The reference level for test values is (1) the ground surface for onshore tests and (2) the seafloor for nearshore and offshore tests.

 UNICAS data file          : CPT-2031.005                            
 Output using command file : PlotASCII.cmd

 ASCII file created at : date          :14-Dec-2021
                         time          :09:58:13
 Project number                        :20024805
 Date of testing                       :13-Dec-2021
 Location                              :Hong Kong Offshore Wind Farm Project
 Test name                             :CPT-2031
 Penetrometer                          :F7.5CKE2HAW2/B/3284
 Serial no                             :1701-3284

 Table description:
 Column ID                             :Parameter name
 ___________________________________________________________________________________
 Rec                                   :Record ID, Record ID [-]
 Depth                                 :Depth, Depth [m]
 Time                                  :Time, Time [s]
 Cone                                  :Cone Resistance, Cone Resistance [MPa]
 Friction                              :Sleeve Friction, Sleeve Friction [MPa]
 Pore 2                                :Porewater Pressure, Porewater Pressure at Shoulder [MPa]
 HydroPress                            :Hydrostatic Pressure, Hydrostatic Pressure [MPa]
 qt                                    :Total Cone Resistance, Total Cone Resistance [MPa]
 Fric_ratio                            :Friction Ratio, Friction Ratio [%]
 SigmaVert                             :Vertical stress, Vertical stress [kPa] as specified in ground model
 Qnet                                  :Net Cone Resistance, Net Cone Resistance [MPa], unit weight as specified in ground model
 Bq                                    :Porewater Pressure Ratio, Porewater Pressure Ratio [-], unit weight as specified in ground model


 Data table:
  Rec    Depth      Time       Cone   Friction     Pore 2 HydroPress         qt Fric_ratio  SigmaVert       Qnet         Bq
   No        m         s        MPa        MPa        MPa        MPa        MPa          %        kPa        MPa          -
    1    0.000   2968.38     0.0000                           0.0000     0.0000                0.0000     0.0000           
    2    0.020   2969.33     0.0017                0.0006     0.0002     0.0019                0.3200     0.0015     0.1037
    3    0.040   3268.42     0.0048                0.0009     0.0004     0.0055                0.6400     0.0049     0.2387
    4    0.060   3269.40     0.0026     0.0001     0.0014     0.0006     0.0030     4.9592     0.9600     0.0021     0.1899
    5    0.080   3270.36     0.0094     0.0002     0.0031     0.0008     0.0105     2.3748     1.2800     0.0092     0.1957
    6    0.100   3271.35     0.0040     0.0006     0.0047     0.0010     0.0057     9.3607     1.6000     0.0041     0.7899
    7    0.120   3272.34     0.0063     0.0011     0.0061     0.0012     0.0087    16.3465     1.9200     0.0068     0.6604
    8    0.140   3273.32     0.0088     0.0008     0.0070     0.0014     0.0117     7.6953     2.2400     0.0094     0.5931
    9    0.160   3274.29     0.0060     0.0013     0.0077     0.0016     0.0092    22.0373     2.5600     0.0067     0.9194
   10    0.180   3275.24     0.0072     0.0007     0.0078     0.0018     0.0104     9.0870     2.8800     0.0076     0.7903
   11    0.200   3306.47     0.0075     0.0007     0.0080     0.0020     0.0108    10.0903     3.2000     0.0076     0.7834
   12    0.220   3344.41     0.0081     0.0009     0.0083     0.0022     0.0115    13.3364     3.5200     0.0080     0.7481
   13    0.240   3364.40     0.0058     0.0007     0.0090     0.0024     0.0096    10.0372     3.8400     0.0058     1.1499
   14    0.260   3365.39     0.0080     0.0008     0.0097     0.0026     0.0120     7.1966     4.1600     0.0078     0.8894
   15    0.280   3366.37     0.0090     0.0008     0.0105     0.0028     0.0134    13.3357     4.4800     0.0089     0.8951
   16    0.300   3367.32     0.0102     0.0004     0.0111     0.0030     0.0147     4.1882     4.8000     0.0099     0.7869
   17    0.320   3368.28     0.0090     0.0011     0.0112     0.0032     0.0137     8.2169     5.1200     0.0086     1.0204
   18    0.340   3369.25     0.0100     0.0006     0.0112     0.0034     0.0147     5.3677     5.4400     0.0093     0.8393
   19    0.360   3370.20     0.0070     0.0003     0.0114     0.0036     0.0118     3.4012     5.7600     0.0061     1.5778
   20    0.380   3371.18     0.0131     0.0009     0.0114     0.0038     0.0179     7.0119     6.0800     0.0118     0.6526
   21    0.400   3372.10     0.0100     0.0007     0.0108     0.0040     0.0146     9.0554     6.4000     0.0082     1.0601
   22    0.420   3373.09     0.0081     0.0005     0.0112     0.0042     0.0127     5.9990     6.7200     0.0060     1.1797
   23    0.440   3374.07     0.0124     0.0003     0.0113     0.0044     0.0171     2.8344     7.0400     0.0101     0.6786
   24    0.460   3375.01     0.0204     0.0003     0.0120     0.0046     0.0253     1.7151     7.3600     0.0180     0.3988
   25    0.480   3375.98     0.0173     0.0006     0.0118     0.0048     0.0222     3.5239     7.6800     0.0145     0.4768
   26    0.500   3376.94     0.0169     0.0011     0.0118     0.0050     0.0219     6.3393     8.0000     0.0139     0.4969
   27    0.520   3377.90     0.0190     0.0011     0.0117     0.0052     0.0239     6.1389     8.3200     0.0156     0.4117
   28    0.540   3378.89     0.0211     0.0015     0.0116     0.0054     0.0262     7.6076     8.6400     0.0175     0.3743
   29    0.560   3379.85     0.0236     0.0009     0.0112     0.0056     0.0284     4.3463     8.9600     0.0194     0.3010
   30    0.580   3393.93     0.0228     0.0010     0.0109     0.0058     0.0274     4.5252     9.2800     0.0182     0.2824
   31    0.600   3426.63     0.0238     0.0013     0.0108     0.0060     0.0283     5.9295     9.6000     0.0187     0.2589
   32    0.620   3453.62     0.0267     0.0010     0.0111     0.0062     0.0312     4.2440     9.9200     0.0213     0.2228
   33    0.640   3454.61     0.0267     0.0010     0.0115     0.0064     0.0313     3.6036    10.2400     0.0211     0.2216
   34    0.660   3455.60     0.0260     0.0009     0.0115     0.0066     0.0308     3.7139    10.5600     0.0203     0.2399
   35    0.680   3456.58     0.0284     0.0007     0.0122     0.0068     0.0334     2.4647    10.8800     0.0225     0.2249
   36    0.700   3457.54     0.0305     0.0008     0.0128     0.0070     0.0358     2.7292    11.2000     0.0246     0.2279
   37    0.720   3458.51     0.0273     0.0009     0.0137     0.0072     0.0329     3.1283    11.5200     0.0214     0.2967
   38    0.740   3459.48     0.0286     0.0011     0.0149     0.0074     0.0346     4.0820    11.8400     0.0227     0.3049
   39    0.760   3460.44     0.0295     0.0002     0.0146     0.0076     0.0356     0.7962    12.1600     0.0235     0.2976
   40    0.780   3461.43     0.0273     0.0005     0.0147     0.0078     0.0335     1.7749    12.4800     0.0210     0.3286
   41    0.800   3462.36     0.0298     0.0011     0.0150     0.0080     0.0360     3.8893    12.8000     0.0232     0.2954
   42    0.820   3463.32     0.0280     0.0017     0.0153     0.0082     0.0343     6.0036    13.1200     0.0212     0.3303
   43    0.840   3464.28     0.0234     0.0019     0.0153     0.0084     0.0298     7.8623    13.4400     0.0163     0.4225
   44    0.860   3465.28     0.0289     0.0016     0.0155     0.0086     0.0353     5.7801    13.7600     0.0216     0.3147
   45    0.880   3472.33     0.0329     0.0018     0.0161     0.0088     0.0396     5.3102    14.0800     0.0255     0.2807
   46    0.900   3491.98     0.0310     0.0015     0.0167     0.0090     0.0379     4.4258    14.4000     0.0235     0.3276
   47    0.920   3511.63     0.0290     0.0019     0.0173     0.0092     0.0362     5.7967    14.7200     0.0215     0.3745
   48    0.940   3525.72     0.0274     0.0014     0.0178     0.0094     0.0348     5.0879    15.0400     0.0198     0.4129
   49    0.960   3526.68     0.0294     0.0019     0.0187     0.0096     0.0372     6.4424    15.3600     0.0218     0.4096
   50    0.980   3527.64     0.0317     0.0014     0.0192     0.0098     0.0396     4.4779    15.6800     0.0239     0.3819
   51    1.000   3528.63     0.0320     0.0012     0.0196     0.0100     0.0402     3.6612    16.0000     0.0242     0.3870
   52    1.020   3529.58     0.0292     0.0015     0.0201     0.0102     0.0375     4.8150    16.3200     0.0212     0.4558
   53    1.040   3530.53     0.0309     0.0016     0.0206     0.0104     0.0394     5.4336    16.6400     0.0228     0.4413
   54    1.060   3531.53     0.0278     0.0012     0.0210     0.0106     0.0365     3.9001    16.9600     0.0196     0.5224
   55    1.080   3532.43     0.0300     0.0014     0.0210     0.0108     0.0389     4.8205    17.2800     0.0216     0.4794
   56    1.100   3533.40     0.0343     0.0014     0.0211     0.0110     0.0431     4.2046    17.6000     0.0255     0.3902
   57    1.120   3534.42     0.0336     0.0013     0.0216     0.0112     0.0426     3.9170    17.9200     0.0247     0.4160
   58    1.140   3535.40     0.0299     0.0014     0.0220     0.0114     0.0391     5.0595    18.2400     0.0208     0.5044
   59    1.160   3536.34     0.0310     0.0016     0.0218     0.0116     0.0402     6.0991    18.5600     0.0216     0.4806
   60    1.180   3537.33     0.0296     0.0012     0.0225     0.0118     0.0390     4.1289    18.8800     0.0201     0.5200
   61    1.200   3538.29     0.0296     0.0014     0.0235     0.0120     0.0393     4.7529    19.2000     0.0201     0.5531
   62    1.220   3539.22     0.0312     0.0009     0.0244     0.0122     0.0413     2.8054    19.5200     0.0218     0.5459
   63    1.240   3540.21     0.0282     0.0013     0.0256     0.0124     0.0387     4.7276    19.8400     0.0189     0.6774
   64    1.260   3541.16     0.0270     0.0013     0.0264     0.0126     0.0380     4.5053    20.1600     0.0178     0.7624
   65    1.280   3542.12     0.0289     0.0014     0.0266     0.0128     0.0400     5.1496    20.4800     0.0196     0.7036
   66    1.300   3543.07     0.0303     0.0010     0.0268     0.0130     0.0415     3.2293    20.8000     0.0207     0.6733
   67    1.320   3544.03     0.0279     0.0014     0.0269     0.0132     0.0393     5.1078    21.1200     0.0182     0.7675
   68    1.340   3544.99     0.0295     0.0015     0.0270     0.0134     0.0408     5.1139    21.4400     0.0194     0.7015
   69    1.360   3545.99     0.0305     0.0011     0.0273     0.0136     0.0418     3.5841    21.7600     0.0201     0.6689
   70    1.380   3546.95     0.0251     0.0014     0.0279     0.0138     0.0367     5.0840    22.0800     0.0146     0.9466
   71    1.400   3547.91     0.0356     0.0012     0.0284     0.0140     0.0474     3.8776    22.4000     0.0250     0.5639
   72    1.420   3548.87     0.0317     0.0016     0.0291     0.0142     0.0438     5.2362    22.7200     0.0211     0.6996
   73    1.440   3549.81     0.0284     0.0016     0.0295     0.0144     0.0408     5.7293    23.0400     0.0178     0.8486
   74    1.460   3550.78     0.0329     0.0014     0.0294     0.0146     0.0452     4.6009    23.3600     0.0219     0.6778
   75    1.480   3551.72     0.0314     0.0013     0.0293     0.0148     0.0438     3.8601    23.6800     0.0201     0.7319
   76    1.500   3552.66     0.0332     0.0019     0.0293     0.0150     0.0455     6.0146    24.0000     0.0215     0.6658
   77    1.520   3553.64     0.0299     0.0012     0.0297     0.0152     0.0422     3.7235    24.3200     0.0179     0.7986
   78    1.540   3554.60     0.0296     0.0014     0.0301     0.0154     0.0421     4.6829    24.6400     0.0175     0.8267
   79    1.560   3555.56     0.0326     0.0015     0.0312     0.0156     0.0455     4.6313    24.9600     0.0205     0.7340
   80    1.580   3556.56     0.0281     0.0015     0.0318     0.0158     0.0414     5.5051    25.2800     0.0162     1.0101
   81    1.600   3557.53     0.0305     0.0015     0.0323     0.0160     0.0440     4.7137    25.6000     0.0184     0.8894
   82    1.620   3558.49     0.0322     0.0014     0.0329     0.0162     0.0460     4.7343    25.9200     0.0201     0.8346
   83    1.640   3559.43     0.0339     0.0014     0.0329     0.0164     0.0477     4.0120    26.2400     0.0215     0.7662
   84    1.660   3560.37     0.0336     0.0016     0.0333     0.0166     0.0476     4.8975    26.5600     0.0211     0.7941
   85    1.680   3561.38     0.0360     0.0012     0.0334     0.0168     0.0500     3.6033    26.8800     0.0231     0.7200
   86    1.700   3562.34     0.0326     0.0013     0.0336     0.0170     0.0467     3.8582    27.2000     0.0195     0.8477
   87    1.720   3563.30     0.0361     0.0008     0.0345     0.0172     0.0505     2.1655    27.5200     0.0229     0.7395
   88    1.740   3564.29     0.0375     0.0013     0.0353     0.0174     0.0523     3.4900    27.8400     0.0245     0.7279
   89    1.760   3565.23     0.0342     0.0010     0.0365     0.0176     0.0493     2.7653    28.1600     0.0212     0.8742
   90    1.780   3566.20     0.0418     0.0015     0.0374     0.0178     0.0574     3.7468    28.4800     0.0289     0.6691
   91    1.800   3567.16     0.0429     0.0013     0.0385     0.0180     0.0588     3.1709    28.8000     0.0300     0.6698
   92    1.820   3568.12     0.0478     0.0012     0.0372     0.0182     0.0638     2.6122    29.1200     0.0347     0.5725
   93    1.840   3569.11     0.0456     0.0013     0.0368     0.0184     0.0612     2.8533    29.4400     0.0317     0.5928
   94    1.860   3570.07     0.0511     0.0017     0.0371     0.0186     0.0666     3.6044    29.7600     0.0368     0.4986
   95    1.880   3571.06     0.0504     0.0020     0.0372     0.0188     0.0659     4.1084    30.0800     0.0359     0.5051
   96    1.900   3572.01     0.0512     0.0024     0.0376     0.0190     0.0670     4.8530    30.4000     0.0366     0.5082
   97    1.920   3572.98     0.0542     0.0024     0.0378     0.0192     0.0700     4.4628    30.7200     0.0393     0.4697
   98    1.940   3573.92     0.0595     0.0025     0.0386     0.0194     0.0756     4.5535    31.0400     0.0446     0.4256
   99    1.960   3580.94     0.0554     0.0022     0.0398     0.0196     0.0720     4.1333    31.3600     0.0406     0.4860
  100    1.980   3594.87     0.0576     0.0027     0.0411     0.0198     0.0747     4.9842    31.6800     0.0430     0.4854
  101    2.000   3608.80     0.0598     0.0022     0.0426     0.0200     0.0774     4.0186    32.0000     0.0454     0.4848
  102    2.020   3613.15     0.0609     0.0010     0.0450     0.0202     0.0795     1.7405    32.3200     0.0472     0.5128
  103    2.040   3614.08     0.0651     0.0003     0.0472     0.0204     0.0847     0.3971    32.6400     0.0521     0.5079
  104    2.060   3615.07     0.0669     0.0013     0.0488     0.0206     0.0871     1.9933    32.9600     0.0542     0.5104
  105    2.080   3616.02     0.0679     0.0030     0.0507     0.0208     0.0890     4.4761    33.2800     0.0557     0.5311
  106    2.100   3616.98     0.1189     0.0038     0.0539     0.0210     0.1411     4.1944    33.6000     0.1075     0.3089
  107    2.120   3617.98     0.2697     0.0041     0.0533     0.0212     0.2924     1.8606    33.9200     0.2585     0.1276
  108    2.140   3618.94     0.2935     0.0035     0.0169     0.0214     0.3163     1.1621    34.2400     0.2820     0.1134
  109    2.160   3619.88     0.2201     0.0035    -0.0049     0.0216     0.2154     1.4506    34.5600     0.1808    -0.1846
  110    2.180   3620.85     0.1596     0.0031     0.0186     0.0218     0.1649     1.7722    34.8800     0.1301    -0.0684
  111    2.200   3621.82     0.1214     0.0031     0.0255     0.0220     0.1314     2.3820    35.2000     0.0962     0.0180
  112    2.220   3622.81     0.0941     0.0035     0.0333     0.0222     0.1065     3.5018    35.5200     0.0710     0.1070
  113    2.240   3623.77     0.0833     0.0027     0.0431     0.0224     0.1003     3.1214    35.8400     0.0644     0.2805
  114    2.260   3624.73     0.0799     0.0012     0.0486     0.0226     0.0995     1.4733    36.1600     0.0634     0.3828
  115    2.280   3625.72     0.0830    -0.0004     0.0524     0.0228     0.1045    -0.4671    36.4800     0.0680     0.4180
  116    2.300   3626.67     0.0838     0.0016     0.0564     0.0230     0.1070     1.8797    36.8000     0.0702     0.4572
  117    2.320   3627.63     0.0900     0.0026     0.0601     0.0232     0.1147     2.9435    37.1200     0.0776     0.4581
  118    2.340   3628.60     0.2012     0.0043     0.0636     0.0234     0.2276     2.6497    37.4400     0.1901     0.2281
  119    2.360   3629.57     0.5086     0.0052     0.0525     0.0236     0.5328     1.1868    37.7600     0.4951     0.0709
  120    2.380   3630.51     0.7370     0.0068     0.0220     0.0238     0.7499     0.9481    38.0800     0.7118     0.0098
  121    2.400   3631.71     0.7542     0.0065     0.0186     0.0240     0.7605     0.8128    38.4000     0.7221    -0.0125
  122    2.420   3634.09     0.5160     0.0073     0.0176     0.0242     0.5239     1.5436    38.7200     0.4851    -0.0114
  123    2.440   3635.10     0.5616     0.0081     0.0197     0.0244     0.5696     1.3901    39.0400     0.5305    -0.0102
  124    2.460   3636.04     0.4978     0.0070     0.0225     0.0246     0.5070     1.3412    39.3600     0.4676    -0.0058
  125    2.480   3637.00     0.4468     0.0059     0.0261     0.0248     0.4572     1.2838    39.6800     0.4175     0.0001
  126    2.500   3637.99     0.3941     0.0056     0.0299     0.0250     0.4054     1.3692    40.0000     0.3654     0.0051
  127    2.520   3638.93     0.3485     0.0054     0.0312     0.0252     0.3614     1.5197    40.3200     0.3211     0.0171
  128    2.540   3639.92     0.2929     0.0058     0.0402     0.0254     0.3077     1.8412    40.6400     0.2671     0.0375
  129    2.560   3640.85     0.2103     0.0060     0.0537     0.0256     0.2302     2.6126    40.9600     0.1893     0.1161
  130    2.580   3641.82     0.1871     0.0057     0.0591     0.0258     0.2127     3.1634    41.2800     0.1714     0.2045
  131    2.600   3642.81     0.2882     0.0088     0.0387     0.0260     0.3061     3.4740    41.6000     0.2645     0.0657
  132    2.620   3643.76     0.3797     0.0093     0.0250     0.0262     0.3912     2.9124    41.9200     0.3493     0.0061
  133    2.640   3644.73     0.5596     0.0096     0.0158     0.0264     0.5687     1.9427    42.2400     0.5265    -0.0076
  134    2.660   3645.68     0.7702     0.0093     0.0180     0.0266     0.7760     1.3142    42.5600     0.7334    -0.0180
  135    2.680   3646.70     0.8906     0.0087     0.0207     0.0268     0.8993     0.9841    42.8800     0.8564    -0.0070
  136    2.700   3647.63     0.9338     0.0088     0.0149     0.0270     0.9420     0.9418    43.2000     0.8988    -0.0084
  137    2.720   3648.62     0.9628     0.0083     0.0242     0.0272     0.9713     0.8669    43.5200     0.9278    -0.0075
  138    2.740   3649.58     0.9565     0.0087     0.0216     0.0274     0.9659     0.8973    43.8400     0.9221    -0.0054
  139    2.760   3650.54     0.8923     0.0055     0.0180     0.0276     0.8979     0.6151    44.1600     0.8537    -0.0168
  140    2.780   3651.50     0.8261     0.0046     0.0264     0.0278     0.8383     0.5374    44.4800     0.7939     0.0016
  141    2.800   3652.46     0.8245     0.0036     0.0244     0.0280     0.8348     0.4384    44.8000     0.7900    -0.0044
  142    2.820   3653.44     0.8571     0.0025     0.0245     0.0282     0.8666     0.2913    45.1200     0.8215    -0.0068
  143    2.840   3654.41     0.9138     0.0019     0.0178     0.0284     0.9233     0.2158    45.4400     0.8778    -0.0067
  144    2.860   3655.40     0.9910     0.0013     0.0155     0.0286     0.9984     0.1360    45.7600     0.9526    -0.0115
  145    2.880   3656.32     1.0398     0.0038     0.0151     0.0288     1.0451     0.3757    46.0800     0.9990    -0.0162
  146    2.900   3657.30     1.0801     0.0043     0.0144     0.0290     1.0870     0.4030    46.4000     1.0406    -0.0121
  147    2.920   3658.25     1.0493     0.0043     0.0199     0.0292     1.0562     0.4013    46.7200     1.0095    -0.0125
  148    2.940   3659.22     1.0756     0.0018     0.0255     0.0294     1.0859     0.1748    47.0400     1.0388    -0.0048
  149    2.960   3660.16     1.2546     0.0022     0.0287     0.0296     1.2651     0.1823    47.3600     1.2178    -0.0039
  150    2.980   3661.14     1.2767     0.0047     0.0262     0.0298     1.2886     0.3646    47.6800     1.2409    -0.0012
  151    3.000   3662.09     1.2822     0.0053     0.0205     0.0300     1.2904     0.4115    48.0000     1.2424    -0.0085
  152    3.020   3663.05     1.3928     0.0056     0.0301     0.0302     1.4042     0.4114    48.3200     1.3559    -0.0022
  153    3.040   3664.04     1.6236     0.0060     0.0279     0.0304     1.6365     0.3789    48.6400     1.5879     0.0003
  154    3.060   3665.03     1.7481     0.0045     0.0247     0.0306     1.7602     0.2593    48.9600     1.7112    -0.0010
  155    3.080   3667.09     1.3434     0.0051     0.0325     0.0308     1.3570     0.3705    49.2800     1.3078     0.0012
  156    3.100   3668.06     1.4087     0.0092     0.0343     0.0310     1.4213     0.6592    49.6000     1.3717    -0.0008
  157    3.120   3669.02     1.3047     0.0094     0.0282     0.0312     1.3184     0.6962    49.9200     1.2685     0.0011
  158    3.140   3670.00     1.2390     0.0095     0.0336     0.0314     1.2539     0.7801    50.2400     1.2037     0.0034
  159    3.160   3670.97     1.1721     0.0144     0.0294     0.0316     1.1838     1.1677    50.5600     1.1333    -0.0032
  160    3.180   3671.99     1.0919     0.0141     0.0379     0.0318     1.1055     1.2287    50.8800     1.0546     0.0007
  161    3.200   3672.92     0.9586     0.0153     0.0378     0.0320     0.9753     1.5603    51.2000     0.9241     0.0085
  162    3.220   3673.93     0.8258     0.0149     0.0425     0.0322     0.8431     1.9405    51.5200     0.7916     0.0113
  163    3.240   3674.89     0.6662     0.0145     0.0439     0.0324     0.6851     2.1753    51.8400     0.6332     0.0197
  164    3.260   3675.85     0.5909     0.0120     0.0441     0.0326     0.6097     1.9252    52.1600     0.5575     0.0217
  165    3.280   3676.79     0.5482     0.0111     0.0442     0.0328     0.5669     1.8862    52.4800     0.5145     0.0230
  166    3.300   3677.75     0.4766     0.0106     0.0441     0.0330     0.4946     2.1603    52.8000     0.4418     0.0225
  167    3.320   3678.73     0.4134     0.0103     0.0518     0.0332     0.4344     2.3691    53.1200     0.3813     0.0441
  168    3.340   3679.73     0.3398     0.0106     0.0502     0.0334     0.3606     2.9838    53.4400     0.3071     0.0525
  169    3.360   3680.65     0.3429     0.0085     0.0531     0.0336     0.3653     2.5177    53.7600     0.3115     0.0634
  170    3.380   3681.64     0.3192     0.0073     0.0644     0.0338     0.3447     2.2242    54.0800     0.2906     0.0929
  171    3.400   3682.62     0.2661     0.0079     0.0694     0.0340     0.2947     2.8144    54.4000     0.2403     0.1429
  172    3.420   3683.59     0.2364     0.0073     0.0814     0.0342     0.2685     2.9597    54.7200     0.2138     0.1985
  173    3.440   3684.52     0.2175     0.0068     0.0838     0.0344     0.2519     3.0713    55.0400     0.1968     0.2406
  174    3.460   3685.47     0.1866     0.0059     0.0762     0.0346     0.2195     2.9764    55.3600     0.1642     0.2675
  175    3.480   3686.41     0.1560     0.0052     0.0677     0.0348     0.1861     3.2199    55.6800     0.1304     0.2819
  176    3.500   3687.37     0.1484     0.0047     0.0617     0.0350     0.1748     3.1415    56.0000     0.1188     0.2352
  177    3.520   3688.37     0.1347     0.0056     0.0715     0.0352     0.1624     3.9611    56.3200     0.1061     0.2906
  178    3.540   3689.33     0.1257     0.0055     0.0770     0.0354     0.1581     4.2916    56.6400     0.1014     0.4113
  179    3.560   3690.29     0.1432     0.0057     0.0753     0.0356     0.1746     4.1288    56.9600     0.1177     0.3343
  180    3.580   3691.27     0.1909     0.0056     0.0788     0.0358     0.2241     3.3581    57.2800     0.1668     0.2596
  181    3.600   3692.23     0.2329     0.0055     0.0758     0.0360     0.2650     2.5874    57.6000     0.2074     0.1952
  182    3.620   3693.19     0.2381     0.0049     0.0764     0.0362     0.2700     2.0730    57.9200     0.2121     0.1875
  183    3.640   3694.16     0.2615     0.0044     0.0786     0.0364     0.2939     1.7791    58.2400     0.2356     0.1726
  184    3.660   3699.26     0.2394     0.0047     0.0806     0.0366     0.2720     1.8831    58.5600     0.2134     0.2011
  185    3.680   3718.15     0.2055     0.0047     0.0891     0.0368     0.2417     1.8855    58.8800     0.1828     0.3027
  186    3.700   3737.05     0.1716     0.0048     0.0977     0.0370     0.2114     1.9413    59.2000     0.1522     0.4042
  187    3.720   3747.86     0.1526     0.0047     0.1037     0.0372     0.1955     3.0751    59.5200     0.1359     0.4763
  188    3.740   3748.81     0.1496     0.0047     0.1046     0.0374     0.1935     3.1112    59.8400     0.1336     0.5014
  189    3.760   3749.76     0.1431     0.0047     0.1119     0.0376     0.1890     3.2870    60.1600     0.1288     0.5564
  190    3.780   3750.72     0.1431     0.0047     0.1128     0.0378     0.1906     3.3466    60.4800     0.1301     0.5779
  191    3.800   3751.70     0.1374     0.0047     0.1102     0.0380     0.1842     3.4236    60.8000     0.1234     0.5958
  192    3.820   3752.70     0.1401     0.0048     0.1126     0.0382     0.1865     3.4707    61.1200     0.1254     0.5768
  193    3.840   3753.67     0.1492     0.0046     0.1133     0.0384     0.1969     3.1559    61.4400     0.1355     0.5557
  194    3.860   3754.66     0.1545     0.0045     0.1087     0.0386     0.2008     2.9280    61.7600     0.1390     0.5150
  195    3.880   3755.61     0.1664     0.0043     0.1005     0.0388     0.2105     2.6452    62.0800     0.1484     0.4473
  196    3.900   3756.59     0.1606     0.0044     0.1056     0.0390     0.2046     2.7048    62.4000     0.1422     0.4631
  197    3.920   3757.53     0.1601     0.0045     0.1123     0.0392     0.2055     2.8070    62.7200     0.1428     0.4833
  198    3.940   3758.53     0.1606     0.0050     0.1124     0.0394     0.2081     3.1599    63.0400     0.1451     0.5079
  199    3.960   3759.51     0.1618     0.0053     0.1072     0.0396     0.2072     3.2690    63.3600     0.1438     0.4753
  200    3.980   3760.45     0.1683     0.0060     0.1052     0.0398     0.2135     3.5906    63.6800     0.1498     0.4517
  201    4.000   3761.40     0.1746     0.0062     0.1075     0.0400     0.2192     3.6256    64.0000     0.1552     0.4271
  202    4.020   3762.37     0.1766     0.0067     0.1051     0.0402     0.2213     3.9094    64.3200     0.1569     0.4210
  203    4.040   3763.36     0.1802     0.0071     0.1050     0.0404     0.2240     3.9749    64.6400     0.1594     0.4009
  204    4.060   3764.34     0.1765     0.0071     0.1049     0.0406     0.2207     4.0276    64.9600     0.1557     0.4154
  205    4.080   3765.30     0.1741     0.0068     0.1048     0.0408     0.2182     3.8049    65.2800     0.1529     0.4209
  206    4.100   3766.28     0.1703     0.0071     0.1050     0.0410     0.2140     4.1645    65.6000     0.1484     0.4253
  207    4.120   3767.24     0.1636     0.0064     0.1087     0.0412     0.2088     3.8782    65.9200     0.1429     0.4651
  208    4.140   3768.18     0.1576     0.0066     0.1128     0.0414     0.2043     4.1733    66.2400     0.1381     0.5060
  209    4.160   3769.16     0.1496     0.0067     0.1138     0.0416     0.1973     4.4642    66.5600     0.1308     0.5501
  210    4.180   3770.13     0.1524     0.0067     0.1137     0.0418     0.2004     4.4379    66.8800     0.1335     0.5432
  211    4.200   3771.10     0.1521     0.0062     0.1120     0.0420     0.1989     3.9553    67.2000     0.1317     0.5277
  212    4.220   3772.07     0.1479     0.0064     0.1097     0.0422     0.1940     4.3790    67.5200     0.1265     0.5354
  213    4.240   3773.04     0.1574     0.0061     0.1082     0.0424     0.2016     3.9552    67.8400     0.1338     0.4704
  214    4.260   3774.00     0.1539     0.0060     0.1087     0.0426     0.1989     3.8521    68.1600     0.1307     0.4934
  215    4.280   3774.96     0.1608     0.0055     0.1053     0.0428     0.2056     3.4538    68.4800     0.1371     0.4666
  216    4.300   3775.92     0.1768     0.0056     0.1006     0.0430     0.2203     3.2544    68.8000     0.1515     0.4010
  217    4.320   3776.91     0.1817     0.0057     0.1003     0.0432     0.2238     3.1413    69.1200     0.1547     0.3689
  218    4.340   3777.87     0.1599     0.0056     0.1069     0.0434     0.2036     3.3665    69.4400     0.1342     0.4530
  219    4.360   3778.86     0.1481     0.0052     0.1071     0.0436     0.1932     3.4233    69.7600     0.1235     0.5166
  220    4.380   3779.80     0.1526     0.0049     0.1062     0.0438     0.1980     3.1725    70.0800     0.1279     0.5036
  221    4.400   3780.76     0.1531     0.0049     0.1051     0.0440     0.1966     3.1347    70.4000     0.1262     0.4730
  222    4.420   3781.74     0.1550     0.0051     0.1037     0.0442     0.1987     3.2865    70.7200     0.1280     0.4669
  223    4.440   3782.71     0.1499     0.0054     0.1098     0.0444     0.1952     3.5730    71.0400     0.1242     0.5113
  224    4.460   3783.67     0.1461     0.0054     0.1206     0.0446     0.1956     3.6750    71.3600     0.1242     0.5898
  225    4.480   3784.63     0.1453     0.0055     0.1194     0.0448     0.1949     3.7740    71.6800     0.1232     0.5958
  226    4.500   3785.61     0.1451     0.0057     0.1180     0.0450     0.1956     3.8892    72.0000     0.1236     0.6089
  227    4.520   3786.57     0.1445     0.0056     0.1244     0.0452     0.1963     3.9436    72.3200     0.1240     0.6297
  228    4.540   3787.53     0.1463     0.0057     0.1251     0.0454     0.1978     3.8985    72.6400     0.1252     0.6181
  229    4.560   3788.49     0.1496     0.0057     0.1311     0.0456     0.2042     3.8446    72.9600     0.1313     0.6432
  230    4.580   3789.48     0.1482     0.0060     0.1315     0.0458     0.2045     4.0625    73.2800     0.1313     0.6737
  231    4.600   3790.46     0.1531     0.0061     0.1227     0.0460     0.2066     3.9923    73.6000     0.1330     0.6116
  232    4.620   3791.42     0.1641     0.0056     0.1233     0.0462     0.2143     3.4540    73.9200     0.1404     0.5232
  233    4.640   3792.39     0.1681     0.0053     0.1247     0.0464     0.2205     3.2241    74.2400     0.1463     0.5357
  234    4.660   3793.36     0.1629     0.0053     0.1273     0.0466     0.2162     3.3014    74.5600     0.1416     0.5658
  235    4.680   3794.32     0.1640     0.0058     0.1282     0.0468     0.2176     3.5099    74.8800     0.1427     0.5659
  236    4.700   3795.30     0.1674     0.0060     0.1292     0.0470     0.2220     3.5353    75.2000     0.1468     0.5658
  237    4.720   3796.27     0.1680     0.0060     0.1209     0.0472     0.2199     3.6343    75.5200     0.1444     0.5284
  238    4.740   3797.28     0.1631     0.0062     0.1120     0.0474     0.2118     3.7759    75.8400     0.1359     0.5038
  239    4.760   3798.25     0.1606     0.0061     0.1031     0.0476     0.2045     3.7385    76.1600     0.1283     0.4435
  240    4.780   3799.19     0.1642     0.0064     0.1072     0.0478     0.2093     3.9036    76.4800     0.1328     0.4480
  241    4.800   3800.16     0.1689     0.0067     0.1083     0.0480     0.2136     4.0625    76.8000     0.1368     0.4270
  242    4.820   3801.15     0.1751     0.0071     0.1149     0.0482     0.2225     4.1115    77.1200     0.1454     0.4456
  243    4.840   3802.14     0.1714     0.0070     0.1194     0.0484     0.2209     4.0549    77.4400     0.1435     0.4845
  244    4.860   3803.10     0.1766     0.0074     0.1172     0.0486     0.2262     4.2182    77.7600     0.1485     0.4688
  245    4.880   3804.03     0.1851     0.0063     0.1162     0.0488     0.2335     3.4448    78.0800     0.1554     0.4275
  246    4.900   3804.98     0.1789     0.0063     0.1065     0.0490     0.2254     3.5114    78.4000     0.1470     0.4201
  247    4.920   3805.94     0.1615     0.0061     0.1224     0.0492     0.2118     3.6524    78.7200     0.1331     0.5296
  248    4.940   3806.93     0.1611     0.0065     0.1287     0.0494     0.2148     4.0844    79.0400     0.1358     0.5778
  249    4.960   3807.89     0.1604     0.0060     0.1343     0.0496     0.2164     3.6784    79.3600     0.1370     0.6103
  250    4.980   3808.89     0.1704     0.0065     0.1332     0.0498     0.2266     3.8284    79.6800     0.1470     0.5716
  251    5.000   3809.87     0.1861     0.0070     0.1292     0.0500     0.2417     3.7922    80.0000     0.1617     0.5102
  252    5.020   3810.81     0.2003     0.0074     0.1307     0.0502     0.2546     3.8041    80.3200     0.1743     0.4533
  253    5.040   3811.76     0.2122     0.0081     0.1293     0.0504     0.2675     3.8513    80.6400     0.1868     0.4347
  254    5.060   3812.80     0.2264     0.0080     0.1195     0.0506     0.2771     3.5542    80.9600     0.1961     0.3578
  255    5.080   3813.76     0.2189     0.0082     0.1135     0.0508     0.2681     3.6777    81.2800     0.1868     0.3547
  256    5.100   3814.71     0.2126     0.0079     0.1105     0.0510     0.2587     3.7155    81.6000     0.1771     0.3320
  257    5.120   3815.68     0.2060     0.0084     0.1217     0.0512     0.2555     4.0252    81.9200     0.1736     0.3838
  258    5.140   3816.66     0.2012     0.0080     0.1253     0.0514     0.2532     3.9963    82.2400     0.1710     0.4244
  259    5.160   3817.65     0.2030     0.0078     0.1297     0.0516     0.2569     3.8393    82.5600     0.1744     0.4408
  260    5.180   3818.58     0.2009     0.0072     0.1308     0.0518     0.2559     3.5507    82.8800     0.1730     0.4577
  261    5.200   3819.56     0.1994     0.0074     0.1306     0.0520     0.2542     3.7337    83.2000     0.1710     0.4579
  262    5.220   3820.52     0.1904     0.0075     0.1272     0.0522     0.2451     3.8864    83.5200     0.1616     0.4832
  263    5.240   3821.48     0.1877     0.0076     0.1305     0.0524     0.2419     4.0213    83.8400     0.1581     0.4855
  264    5.260   3822.46     0.1793     0.0071     0.1292     0.0526     0.2342     3.9132    84.1600     0.1500     0.5197
  265    5.280   3823.43     0.1824     0.0078     0.1339     0.0528     0.2379     4.3059    84.4800     0.1534     0.5173
  266    5.300   3824.43     0.1845     0.0081     0.1385     0.0530     0.2420     4.4382    84.8000     0.1572     0.5338
  267    5.320   3825.38     0.2026     0.0083     0.1362     0.0532     0.2606     4.2280    85.1200     0.1755     0.4832
  268    5.340   3826.34     0.2328     0.0073     0.1295     0.0534     0.2890     3.3245    85.4400     0.2036     0.3963
  269    5.360   3827.30     0.2507     0.0071     0.1135     0.0536     0.3002     2.9081    85.7600     0.2145     0.3005
  270    5.380   3828.29     0.2420     0.0071     0.1153     0.0538     0.2893     2.8734    86.0800     0.2032     0.2903
  271    5.400   3829.24     0.1942     0.0066     0.1302     0.0540     0.2464     3.1646    86.4000     0.1600     0.4436
  272    5.420   3830.21     0.1725     0.0067     0.1416     0.0542     0.2308     3.7962    86.7200     0.1441     0.5885
  273    5.440   3831.17     0.1717     0.0065     0.1493     0.0544     0.2325     3.8047    87.0400     0.1455     0.6216
  274    5.460   3832.13     0.1729     0.0068     0.1558     0.0546     0.2376     3.9182    87.3600     0.1502     0.6620
  275    5.480   3833.08     0.1759     0.0067     0.1578     0.0548     0.2421     3.9130    87.6800     0.1544     0.6664
  276    5.500   3834.09     0.1738     0.0067     0.1610     0.0550     0.2408     3.9078    88.0000     0.1528     0.6845
  277    5.520   3835.03     0.1779     0.0071     0.1591     0.0552     0.2455     3.9802    88.3200     0.1572     0.6719
  278    5.540   3836.03     0.1796     0.0074     0.1531     0.0554     0.2458     4.1511    88.6400     0.1572     0.6515
  279    5.560   3837.26     0.1918     0.0071     0.1501     0.0556     0.2558     3.7924    88.9600     0.1668     0.5801
  280    5.580   3867.28     0.2052     0.0075     0.1433     0.0558     0.2664     3.9275    89.2800     0.1771     0.5141
  281    5.600   3897.29     0.2185     0.0076     0.1366     0.0560     0.2769     3.9831    89.6000     0.1873     0.4481
  282    5.620   3919.17     0.2272     0.0075     0.1297     0.0562     0.2827     3.4991    89.9200     0.1928     0.3936
  283    5.640   3920.13     0.2279     0.0077     0.1290     0.0564     0.2819     3.3533    90.2400     0.1916     0.3763
  284    5.660   3921.10     0.2116     0.0075     0.1397     0.0566     0.2691     3.4422    90.5600     0.1785     0.4504
  285    5.680   3922.09     0.1982     0.0076     0.1372     0.0568     0.2568     3.7199    90.8800     0.1660     0.4988
  286    5.700   3923.06     0.1918     0.0076     0.1408     0.0570     0.2499     3.9531    91.2000     0.1587     0.5131
  287    5.720   3923.95     0.1948     0.0076     0.1439     0.0572     0.2575     3.9742    91.5200     0.1660     0.5550
  288    5.740   3924.87     0.2016     0.0069     0.1464     0.0574     0.2628     3.5149    91.8400     0.1710     0.5168
  289    5.760   3925.83     0.2119     0.0067     0.1537     0.0576     0.2755     3.2332    92.1600     0.1834     0.5120
  290    5.780   3926.79     0.2023     0.0072     0.1595     0.0578     0.2684     3.5394    92.4800     0.1759     0.5662
  291    5.800   3927.78     0.1987     0.0072     0.1634     0.0580     0.2666     3.5559    92.8000     0.1738     0.5964
  292    5.820   3928.75     0.1862     0.0073     0.1719     0.0582     0.2571     3.8518    93.1200     0.1639     0.6748
  293    5.840   3929.73     0.1990     0.0080     0.1767     0.0584     0.2731     4.0611    93.4400     0.1797     0.6575
  294    5.860   3930.65     0.2054     0.0087     0.1755     0.0586     0.2792     4.2776    93.7600     0.1855     0.6315
  295    5.880   3931.60     0.2220     0.0090     0.1587     0.0588     0.2915     4.0670    94.0800     0.1974     0.5403
  296    5.900   3932.56     0.2241     0.0093     0.1520     0.0590     0.2874     4.1150    94.4000     0.1930     0.4757
  297    5.920   3933.60     0.2101     0.0089     0.1742     0.0592     0.2817     4.1689    94.7200     0.1870     0.5950
  298    5.940   4158.35     0.2259     0.0090     0.1514     0.0594     0.2928     4.2639    95.0400     0.1978     0.5131
  299    5.960   4484.11     0.2490     0.0089     0.1321     0.0596     0.3063     3.8817    95.3600     0.2110     0.3679
  300    5.980   4565.41     0.2655     0.0090     0.1426     0.0598     0.3244     3.5592    95.6800     0.2287     0.3546
  301    6.000   4566.25     0.3320     0.0090     0.1479     0.0600     0.3937     2.7875    96.0000     0.2977     0.2922
  302    6.020   4567.15     0.3145     0.0082     0.1554     0.0602     0.3786     2.5346    96.3200     0.2822     0.3286
  303    6.040   4568.16     0.2992     0.0080     0.1590     0.0604     0.3647     2.6511    96.6400     0.2680     0.3566
  304    6.060   4569.14     0.2800     0.0077     0.1677     0.0606     0.3492     2.6989    96.9600     0.2522     0.4133
  305    6.080   4570.12     0.2644     0.0075     0.1690     0.0608     0.3366     2.8209    97.2800     0.2394     0.4641
  306    6.100   4571.10     0.2647     0.0077     0.1417     0.0610     0.3284     2.8932    97.6000     0.2308     0.3924
  307    6.120   4572.14     0.2880     0.0074     0.1288     0.0612     0.3406     2.6868    97.9200     0.2427     0.2656
  308    6.140   4573.10     0.2957     0.0064     0.1454     0.0614     0.3544     2.1947    98.2400     0.2562     0.3056
  309    6.160   4574.08     0.2924     0.0067     0.1479     0.0616     0.3560     2.2611    98.5600     0.2574     0.3488
  310    6.180   4575.07     0.2962     0.0073     0.1363     0.0618     0.3550     2.4888    98.8800     0.2561     0.3056
  311    6.200   4576.05     0.3043     0.0080     0.1573     0.0620     0.3683     2.5723    99.2000     0.2691     0.3360
  312    6.220   4577.08     0.2679     0.0081     0.1533     0.0622     0.3335     2.9575    99.5200     0.2340     0.4019
  313    6.240   4578.06     0.2689     0.0080     0.1479     0.0624     0.3314     3.0169    99.8400     0.2315     0.3729
  314    6.260   4579.02     0.2500     0.0077     0.1507     0.0626     0.3139     3.0521   100.1600     0.2137     0.4192
  315    6.280   4579.99     0.2310     0.0074     0.1537     0.0628     0.2948     3.1461   100.4800     0.1943     0.4583
  316    6.300   4581.00     0.2110     0.0067     0.1574     0.0630     0.2764     3.1024   100.8000     0.1756     0.5280
  317    6.320   4581.96     0.1960     0.0059     0.1709     0.0632     0.2650     2.9873   101.1200     0.1639     0.6177
  318    6.340   4582.97     0.1868     0.0056     0.1840     0.0634     0.2626     2.9657   101.4400     0.1612     0.7268
  319    6.360   4583.91     0.1904     0.0057     0.1960     0.0636     0.2711     3.0387   101.7600     0.1694     0.7597
  320    6.380   4584.93     0.2154     0.0072     0.2033     0.0638     0.3000     3.4894   102.0800     0.1980     0.6965
  321    6.400   4585.90     0.2781     0.0080     0.1967     0.0640     0.3624     3.1316   102.4000     0.2600     0.5281
  322    6.420   4586.89     0.3380     0.0083     0.1594     0.0642     0.4106     2.5385   102.7200     0.3079     0.3529
  323    6.440   4587.85     0.3432     0.0081     0.1332     0.0644     0.4002     2.3433   103.0400     0.2972     0.2404
  324    6.460   4588.81     0.3082     0.0083     0.1333     0.0646     0.3644     2.6352   103.3600     0.2611     0.2653
  325    6.480   4589.80     0.2642     0.0069     0.1380     0.0648     0.3207     2.4961   103.6800     0.2171     0.3223
  326    6.500   4590.77     0.2299     0.0076     0.1591     0.0650     0.2926     3.2186   104.0000     0.1886     0.4476
  327    6.520   4591.73     0.2217     0.0072     0.1734     0.0652     0.2927     3.1967   104.3200     0.1884     0.5515
  328    6.540   4592.71     0.2377     0.0080     0.1837     0.0654     0.3136     3.4572   104.6400     0.2089     0.5513
  329    6.560   4593.67     0.2852     0.0090     0.1850     0.0656     0.3639     3.3276   104.9600     0.2590     0.4712
  330    6.580   4594.66     0.3643     0.0079     0.1530     0.0658     0.4322     2.2983   105.2800     0.3269     0.2944
  331    6.600   4595.66     0.4041     0.0068     0.1402     0.0660     0.4641     1.6925   105.6000     0.3585     0.2144
  332    6.620   4596.57     0.3833     0.0078     0.1358     0.0662     0.4410     2.0062   105.9200     0.3351     0.2130
  333    6.640   4597.57     0.3616     0.0084     0.1334     0.0664     0.4177     2.2862   106.2400     0.3115     0.2161
  334    6.660   4598.57     0.3680     0.0104     0.1419     0.0666     0.4252     2.9398   106.5600     0.3186     0.2182
  335    6.680   4599.53     0.4342     0.0116     0.1487     0.0668     0.4983     2.7951   106.8800     0.3915     0.2204
  336    6.700   4600.50     0.5300     0.0091     0.1166     0.0670     0.5841     1.7726   107.2000     0.4769     0.1303
  337    6.720   4601.51     0.5447     0.0105     0.1091     0.0672     0.5903     1.8878   107.5200     0.4828     0.0859
  338    6.740   4602.47     0.4907     0.0109     0.1133     0.0674     0.5363     2.1432   107.8400     0.4285     0.0965
  339    6.760   4603.42     0.4327     0.0110     0.1196     0.0676     0.4815     2.3630   108.1600     0.3733     0.1304
  340    6.780   4604.39     0.4004     0.0110     0.1388     0.0678     0.4542     2.5831   108.4800     0.3458     0.1752
  341    6.800   4605.39     0.3813     0.0110     0.1321     0.0680     0.4365     2.8033   108.8000     0.3277     0.1935
  342    6.820   4606.36     0.3537     0.0107     0.1419     0.0682     0.4120     2.9625   109.1200     0.3029     0.2332
  343    6.840   4607.34     0.3105     0.0094     0.1569     0.0684     0.3742     3.0122   109.4400     0.2647     0.3148
  344    6.860   4617.81     0.3018     0.0092     0.1588     0.0686     0.3686     3.1205   109.7600     0.2588     0.3500
  345    6.880   4637.49     0.3138     0.0091     0.1583     0.0688     0.3803     3.0614   110.0800     0.2702     0.3336
  346    6.900   4657.17     0.3257     0.0079     0.1578     0.0690     0.3920     2.6785   110.4000     0.2816     0.3171
  347    6.920   4671.48     0.3231     0.0078     0.1639     0.0692     0.3905     2.4032   110.7200     0.2798     0.3276
  348    6.940   4672.11     0.3026     0.0074     0.1709     0.0694     0.3735     2.4447   111.0400     0.2624     0.3784
  349    6.960   4672.75     0.2988     0.0071     0.1759     0.0696     0.3718     2.3828   111.3600     0.2604     0.4003
  350    6.980   4673.38     0.2878     0.0071     0.1800     0.0698     0.3631     2.4626   111.6800     0.2514     0.4357
  351    7.000   4674.04     0.2999     0.0072     0.1742     0.0700     0.3743     2.4032   112.0000     0.2623     0.4089
  352    7.020   4674.67     0.2964     0.0075     0.1683     0.0702     0.3668     2.5183   112.3200     0.2545     0.3833
  353    7.040   4675.30     0.2812     0.0073     0.1780     0.0704     0.3556     2.6029   112.6400     0.2429     0.4393
  354    7.060   4675.93     0.2899     0.0073     0.1771     0.0706     0.3647     2.6073   112.9600     0.2517     0.4269
  355    7.080   4676.57     0.2913     0.0073     0.1677     0.0708     0.3633     2.6139   113.2800     0.2500     0.4018
  356    7.100   4677.22     0.2820     0.0074     0.1779     0.0710     0.3562     2.6205   113.6000     0.2426     0.4353
  357    7.120   4677.85     0.2737     0.0072     0.1780     0.0712     0.3485     2.5944   113.9200     0.2345     0.4556
  358    7.140   4678.49     0.2551     0.0073     0.1849     0.0714     0.3313     2.8288   114.2400     0.2171     0.5076
  359    7.160   4684.96     0.2473     0.0069     0.1836     0.0716     0.3248     2.7537   114.5600     0.2102     0.5371
  360    7.180   4696.01     0.2425     0.0067     0.1812     0.0718     0.3190     2.6997   114.8800     0.2041     0.5405
  361    7.200   4707.06     0.2378     0.0070     0.1788     0.0720     0.3133     2.8041   115.2000     0.1981     0.5438
  362    7.220   4718.10     0.2331     0.0067     0.1796     0.0722     0.3075     2.7767   115.5200     0.1920     0.5472
  363    7.240   4719.25     0.2248     0.0065     0.1854     0.0724     0.3019     2.8725   115.8400     0.1861     0.5982
  364    7.260   4720.24     0.2263     0.0065     0.1909     0.0726     0.3057     2.9207   116.1600     0.1896     0.6142
  365    7.280   4721.19     0.2338     0.0063     0.1967     0.0728     0.3156     2.7132   116.4800     0.1991     0.6130
  366    7.300   4722.16     0.2458     0.0060     0.2004     0.0730     0.3294     2.4340   116.8000     0.2126     0.5925
  367    7.320   4723.14     0.2477     0.0064     0.2001     0.0732     0.3323     2.5797   117.1200     0.2152     0.5959
  368    7.340   4724.10     0.2474     0.0064     0.1971     0.0734     0.3303     2.5985   117.4400     0.2129     0.5826
  369    7.360   4725.12     0.2570     0.0063     0.1980     0.0736     0.3402     2.4450   117.7600     0.2224     0.5598
  370    7.380   4726.09     0.2611     0.0058     0.1962     0.0738     0.3438     2.2312   118.0800     0.2258     0.5462
  371    7.400   4727.04     0.2784     0.0055     0.1853     0.0740     0.3582     1.9867   118.4000     0.2398     0.4841
  372    7.420   4728.02     0.2740     0.0063     0.1728     0.0742     0.3467     2.2756   118.7200     0.2280     0.4332
  373    7.440   4728.98     0.2620     0.0068     0.1920     0.0744     0.3411     2.6089   119.0400     0.2221     0.5132
  374    7.460   4729.95     0.2947     0.0066     0.1845     0.0746     0.3746     2.3150   119.3600     0.2552     0.4527
  375    7.480   4730.91     0.3135     0.0069     0.1840     0.0748     0.3907     2.2203   119.6800     0.2710     0.4025
  376    7.500   4731.86     0.3181     0.0064     0.1783     0.0750     0.3940     2.0306   120.0000     0.2740     0.3856
  377    7.520   4732.80     0.3070     0.0068     0.1788     0.0752     0.3810     2.1909   120.3200     0.2607     0.3878
  378    7.540   4733.79     0.2716     0.0064     0.1847     0.0754     0.3483     2.3018   120.6400     0.2277     0.4715
  379    7.560   4734.78     0.2569     0.0055     0.1914     0.0756     0.3366     2.0885   120.9600     0.2157     0.5297
  380    7.580   4735.77     0.2475     0.0047     0.1989     0.0758     0.3297     1.8349   121.2800     0.2084     0.5758
  381    7.600   4736.75     0.2382     0.0046     0.2037     0.0760     0.3233     1.9362   121.6000     0.2017     0.6279
  382    7.620   4737.68     0.2334     0.0055     0.2120     0.0762     0.3212     2.2261   121.9200     0.1993     0.6672
  383    7.640   4738.70     0.2655     0.0069     0.2200     0.0764     0.3569     2.2599   122.2400     0.2347     0.6039
  384    7.660   4739.66     0.3769     0.0083     0.2153     0.0766     0.4704     2.2938   122.5600     0.3479     0.4235
  385    7.680   4740.65     0.5259     0.0087     0.1546     0.0768     0.5993     1.8449   122.8800     0.4764     0.2075
  386    7.700   4741.61     0.5803     0.0093     0.1322     0.0770     0.6373     1.6202   123.2000     0.5141     0.1143
  387    7.720   4742.57     0.5523     0.0101     0.1351     0.0772     0.6083     1.7719   123.5200     0.4847     0.1159
  388    7.740   4749.57     0.5095     0.0110     0.1323     0.0774     0.5654     2.0363   123.8400     0.4416     0.1274
  389    7.760   4758.03     0.4692     0.0113     0.1295     0.0776     0.5240     2.0936   124.1600     0.3998     0.1334
  390    7.780   4766.31     0.4285     0.0101     0.1315     0.0778     0.4823     2.1598   124.4800     0.3578     0.1405
  391    7.800   4767.28     0.3777     0.0084     0.1397     0.0780     0.4352     2.1379   124.8000     0.3104     0.1902
  392    7.820   4768.29     0.3141     0.0080     0.1483     0.0782     0.3751     2.3920   125.1200     0.2499     0.2678
  393    7.840   4769.26     0.2735     0.0067     0.1593     0.0784     0.3382     2.3703   125.4400     0.2127     0.3558
  394    7.860   4770.20     0.2397     0.0064     0.1743     0.0786     0.3110     2.5922   125.7600     0.1853     0.4924
  395    7.880   4771.22     0.2335     0.0068     0.1850     0.0788     0.3099     2.9259   126.0800     0.1838     0.5605
  396    7.900   4772.17     0.2355     0.0070     0.1942     0.0790     0.3156     3.0046   126.4000     0.1892     0.5902
  397    7.920   4773.13     0.2360     0.0056     0.2016     0.0792     0.3197     2.4011   126.7200     0.1930     0.6229
  398    7.940   4774.11     0.2442     0.0036     0.2082     0.0794     0.3308     1.5128   127.0400     0.2038     0.6222
  399    7.960   4775.07     0.2605     0.0052     0.2140     0.0796     0.3494     2.0574   127.3600     0.2220     0.5952
  400    7.980   4776.05     0.2733     0.0057     0.2193     0.0798     0.3649     2.1291   127.6800     0.2373     0.5832
  401    8.000   4776.99     0.3067     0.0061     0.2272     0.0800     0.4008     2.0760   128.0000     0.2728     0.5293
  402    8.020   4777.97     0.5418     0.0082     0.2298     0.0802     0.6385     1.9311   128.3200     0.5101     0.3139
  403    8.040   4778.96     1.3834     0.0147     0.1410     0.0804     1.4638     1.2924   128.6400     1.3352     0.0892
  404    8.060   4779.94     2.0597     0.0215     0.0563     0.0806     2.0886     1.0848   128.9600     1.9597    -0.0060
  405    8.080   4780.93     1.9396     0.0209     0.0358     0.0808     1.9554     1.0408   129.2800     1.8261    -0.0237
  406    8.100   4781.88     1.5317     0.0201     0.0561     0.0810     1.5522     1.2339   129.6000     1.4226    -0.0225
  407    8.120   4782.84     1.1930     0.0217     0.0777     0.0812     1.2234     1.7111   129.9200     1.0935    -0.0079
  408    8.140   4783.85     1.0334     0.0200     0.0855     0.0814     1.0695     1.8927   130.2400     0.9392     0.0049
  409    8.160   4784.83     1.1267     0.0196     0.0925     0.0816     1.1631     1.8342   130.5600     1.0326     0.0049
  410    8.180   4785.79     1.6947     0.0210     0.0535     0.0818     1.7442     1.3968   130.8800     1.6133     0.0224
  411    8.200   4786.79     2.1324     0.0177    -0.0462     0.0820     2.1124     0.8735   131.2000     1.9812    -0.0654
  412    8.220   4787.71     2.0645     0.0154    -0.0250     0.0822     2.0503     0.7293   131.5200     1.9188    -0.0604
  413    8.240   4788.71     1.8630     0.0152     0.0060     0.0824     1.8610     0.7953   131.8400     1.7292    -0.0503
  414    8.260   4789.69     1.6677     0.0155     0.0229     0.0826     1.6752     0.9029   132.1600     1.5431    -0.0418
  415    8.280   4790.65     1.5793     0.0144     0.0468     0.0828     1.5955     0.9058   132.4800     1.4630    -0.0302
  416    8.300   4791.63     1.5517     0.0139     0.0599     0.0830     1.5750     0.8933   132.8000     1.4422    -0.0192
  417    8.320   4792.60     1.6309     0.0143     0.0671     0.0832     1.6586     0.9044   133.1200     1.5255    -0.0114
  418    8.340   4793.57     1.8618     0.0132     0.0605     0.0834     1.8898     0.7334   133.4400     1.7564    -0.0095
  419    8.360   4794.53     2.0579     0.0127     0.0225     0.0836     2.0729     0.6272   133.7600     1.9392    -0.0246
  420    8.380   4795.49     1.9457     0.0142     0.0273     0.0838     1.9544     0.7125   134.0800     1.8203    -0.0347
  421    8.400   4796.45     1.6554     0.0207     0.0472     0.0840     1.6736     1.1810   134.4000     1.5392    -0.0264
  422    8.420   4797.41     1.2654     0.0244     0.0572     0.0842     1.2880     1.7943   134.7200     1.1533    -0.0264
  423    8.440   4798.41     0.9310     0.0245     0.0650     0.0844     0.9565     2.4335   135.0400     0.8215    -0.0285
  424    8.460   4799.37     0.7163     0.0243     0.0739     0.0846     0.7447     3.1724   135.3600     0.6093    -0.0276
  425    8.480   4800.33     0.5833     0.0228     0.0890     0.0848     0.6187     3.7245   135.6800     0.4830    -0.0008
  426    8.500   4801.29     0.4899     0.0206     0.0871     0.0850     0.5270     4.0301   136.0000     0.3910     0.0089
  427    8.520   4802.27     0.3949     0.0196     0.1015     0.0852     0.4329     4.7359   136.3200     0.2966     0.0185
  428    8.540   4803.25     0.3019     0.0155     0.1487     0.0854     0.3563     4.8897   136.6400     0.2197     0.2016
  429    8.560   4804.22     0.2706     0.0115     0.1721     0.0856     0.3408     4.1898   136.9600     0.2039     0.4005
  430    8.580   4805.19     0.2693     0.0084     0.1805     0.0858     0.3443     3.0764   137.2800     0.2070     0.4482
  431    8.600   4806.22     0.2737     0.0077     0.1904     0.0860     0.3527     2.8181   137.6000     0.2151     0.4740
  432    8.620   4807.17     0.2617     0.0082     0.2002     0.0862     0.3442     3.0769   137.9200     0.2063     0.5347
  433    8.640   4808.15     0.2717     0.0088     0.2029     0.0864     0.3581     3.3914   138.2400     0.2198     0.5434
  434    8.660   4809.12     0.3315     0.0087     0.2085     0.0866     0.4183     2.5975   138.5600     0.2797     0.4287
  435    8.680   4810.11     0.4135     0.0101     0.1929     0.0868     0.4966     2.6145   138.8800     0.3577     0.3128
  436    8.700   4811.07     0.4821     0.0092     0.1670     0.0870     0.5566     1.9458   139.2000     0.4174     0.2172
  437    8.720   4812.04     0.4746     0.0063     0.1673     0.0872     0.5433     1.2993   139.5200     0.4038     0.1891
  438    8.740   4813.02     0.4761     0.0035     0.1766     0.0874     0.5485     0.7396   139.8400     0.4086     0.2078
  439    8.760   4813.99     0.4992     0.0059     0.1808     0.0876     0.5734     1.2186   140.1600     0.4333     0.2060
  440    8.780   4814.97     0.6492     0.0035     0.2036     0.0878     0.7317     0.6041   140.4800     0.5912     0.1845
  441    8.800   4815.97     0.9651     0.0094     0.1219     0.0880     1.0339     1.0625   140.8000     0.8931     0.0889
  442    8.820   4816.96     1.3216     0.0060     0.0492     0.0882     1.3486     0.4847   141.1200     1.2075    -0.0195
  443    8.840   4817.95     1.5941     0.0136     0.0167     0.0884     1.6048     0.8826   141.4400     1.4634    -0.0428
  444    8.860   4818.88     1.8339     0.0177     0.0425     0.0886     1.8468     0.9925   141.7600     1.7050    -0.0341
  445    8.880   4819.86     2.3577     0.0222     0.0495     0.0888     2.3778     1.0132   142.0800     2.2358    -0.0184
  446    8.900   4820.87     2.6206     0.0224     0.0753     0.0890     2.6539     0.8504   142.4000     2.5115    -0.0039
  447    8.920   4821.79     2.6003     0.0249     0.0770     0.0892     2.6303     0.9444   142.7200     2.4876    -0.0072
  448    8.940   4822.78     2.2438     0.0314     0.0882     0.0894     2.2761     1.3506   143.0400     2.1331    -0.0059
  449    8.960   4823.79     1.6713     0.0321     0.0835     0.0896     1.7106     1.7703   143.3600     1.5672     0.0025
  450    8.980   4824.76     1.3948     0.0340     0.0921     0.0898     1.4333     2.3621   143.6800     1.2896     0.0014
  451    9.000   4825.72     1.4027     0.0333     0.0922     0.0900     1.4413     2.3747   144.0000     1.2973     0.0016
  452    9.020   4826.73     1.2919     0.0266     0.0925     0.0902     1.3306     1.9894   144.3200     1.1863     0.0018
  453    9.040   4827.67     0.9973     0.0245     0.0882     0.0904     1.0358     2.3011   144.6400     0.8911     0.0012
  454    9.060   4828.62     0.8069     0.0215     0.0870     0.0906     0.8424     2.5718   144.9600     0.6974    -0.0091
  455    9.080   4829.62     0.6999     0.0183     0.0848     0.0908     0.7352     2.5300   145.2800     0.5899    -0.0119
  456    9.100   4830.61     0.6150     0.0143     0.1231     0.0910     0.6601     2.2718   145.6000     0.5145     0.0323
  457    9.120   4831.57     0.6676     0.0115     0.1391     0.0912     0.7261     1.8191   145.9200     0.5802     0.0833
  458    9.140   4832.56     0.7040     0.0088     0.1371     0.0914     0.7616     1.2584   146.2400     0.6154     0.0745
  459    9.160   4833.56     0.7700     0.0085     0.1358     0.0916     0.8269     1.1537   146.5600     0.6803     0.0647
  460    9.180   4834.51     0.8963     0.0097     0.1318     0.0918     0.9553     1.1286   146.8800     0.8084     0.0608
  461    9.200   4835.47     1.1534     0.0112     0.0943     0.0920     1.1990     1.0542   147.2000     1.0518     0.0168
  462    9.220   4836.46     1.4184     0.0119     0.0646     0.0922     1.4516     0.8651   147.5200     1.3041    -0.0099
  463    9.240   4837.45     1.5496     0.0109     0.0620     0.0924     1.5730     0.7113   147.8400     1.4251    -0.0259
  464    9.260   4838.44     1.5523     0.0093     0.0621     0.0926     1.5774     0.5976   148.1600     1.4293    -0.0229
  465    9.280   4839.39     1.5758     0.0074     0.0727     0.0928     1.6060     0.4765   148.4800     1.4576    -0.0142
  466    9.300   4840.39     1.7377     0.0071     0.0837     0.0930     1.7707     0.4250   148.8000     1.6219    -0.0089
  467    9.320   4841.35     1.9798     0.0074     0.0674     0.0932     2.0082     0.3883   149.1200     1.8591    -0.0138
  468    9.340   4842.30     2.3026     0.0072     0.0480     0.0934     2.3258     0.3224   149.4400     2.1764    -0.0174
  469    9.360   4843.34     2.5456     0.0096     0.0235     0.0936     2.5563     0.3824   149.7600     2.4066    -0.0283
  470    9.380   4844.31     2.5153     0.0129     0.0144     0.0938     2.5218     0.5060   150.0800     2.3717    -0.0331
  471    9.400   4845.25     2.2264     0.0196     0.0329     0.0940     2.2368     0.8557   150.4000     2.0864    -0.0331
  472    9.420   4846.23     1.8204     0.0232     0.0498     0.0942     1.8392     1.1970   150.7200     1.6885    -0.0293
  473    9.440   4847.19     1.4063     0.0242     0.0736     0.0944     1.4351     1.6151   151.0400     1.2840    -0.0199
  474    9.460   4848.17     1.0558     0.0259     0.0866     0.0946     1.0888     2.2936   151.3600     0.9374    -0.0171
  475    9.480   4849.12     0.9139     0.0262     0.1012     0.0948     0.9557     2.7983   151.6800     0.8041     0.0062
  476    9.500   4850.12     0.8242     0.0238     0.1004     0.0950     0.8659     2.7982   152.0000     0.7139     0.0060
  477    9.520   4851.08     0.6982     0.0220     0.1111     0.0952     0.7427     3.0046   152.3200     0.5904     0.0183
  478    9.540   4852.05     0.5729     0.0194     0.1471     0.0954     0.6290     3.1653   152.6400     0.4764     0.0823
  479    9.560   4853.05     0.4521     0.0164     0.1609     0.0956     0.5183     3.4485   152.9600     0.3654     0.1707
  480    9.580   4854.00     0.3822     0.0132     0.1835     0.0958     0.4572     3.4229   153.2800     0.3039     0.2725
  481    9.600   4855.00     0.3500     0.0105     0.2102     0.0960     0.4343     2.9352   153.6000     0.2807     0.3737
  482    9.620   4855.95     0.3408     0.0085     0.2193     0.0962     0.4314     2.5080   153.9200     0.2775     0.4306
  483    9.640   4856.92     0.3447     0.0058     0.2231     0.0964     0.4360     1.6602   154.2400     0.2817     0.4296
  484    9.660   4857.89     0.3245     0.0069     0.2350     0.0966     0.4215     2.1095   154.5600     0.2669     0.5030
  485    9.680   4858.90     0.3252     0.0063     0.2527     0.0968     0.4279     1.8791   154.8800     0.2731     0.5420
  486    9.700   4859.86     0.2983     0.0067     0.2614     0.0970     0.4071     1.8575   155.2000     0.2519     0.6428
  487    9.720   4860.82     0.3239     0.0071     0.2733     0.0972     0.4363     1.8359   155.5200     0.2808     0.6111
  488    9.740   4861.81     0.6406     0.0076     0.2675     0.0974     0.7566     1.7870   155.8400     0.6007     0.2982
  489    9.760   4862.80     1.5078     0.0077     0.1355     0.0976     1.5957     0.5232   156.1600     1.4395     0.0796
  490    9.780   4864.17     2.3549     0.0080     0.0673     0.0978     2.3830     0.3491   156.4800     2.2265    -0.0139
  491    9.800   4871.76     2.5790     0.0089     0.0687     0.0980     2.6076     0.3812   156.8000     2.4508    -0.0125
  492    9.820   4879.35     2.8031     0.0099     0.0700     0.0982     2.8323     0.4243   157.1200     2.6752    -0.0110
  493    9.840   4886.94     3.0272     0.0115     0.0714     0.0984     3.0569     0.4911   157.4400     2.8995    -0.0096
  494    9.860   4890.40     3.1061     0.0129     0.0820     0.0986     3.1394     0.4155   157.7600     2.9816    -0.0065
  495    9.880   4891.38     3.0545     0.0144     0.0830     0.0988     3.0881     0.4679   158.0800     2.9300    -0.0064
  496    9.900   4892.32     2.9795     0.0152     0.0886     0.0990     3.0156     0.5059   158.4000     2.8572    -0.0045
  497    9.920   4893.28     2.9039     0.0158     0.0929     0.0992     2.9424     0.5406   158.7200     2.7837    -0.0027
  498    9.940   4894.32     2.8365     0.0152     0.0978     0.0994     2.8768     0.5329   159.0400     2.7178    -0.0013
  499    9.960   4895.27     2.8517     0.0149     0.0999     0.0996     2.8940     0.5230   159.3600     2.7346     0.0004
  500    9.980   4896.25     2.9183     0.0155     0.1012     0.0998     2.9606     0.5333   159.6800     2.8009     0.0003
  501   10.000   4897.21     2.9526     0.0170     0.1020     0.1000     2.9954     0.5780   160.0000     2.8354     0.0007
  502   10.020   4898.19     2.9180     0.0210     0.1014     0.1002     2.9610     0.7162   160.3200     2.8007     0.0008
  503   10.040   4899.14     2.7845     0.0244     0.0996     0.1004     2.8263     0.8660   160.6400     2.6656    -0.0004
  504   10.060   4900.12     2.5813     0.0236     0.1025     0.1006     2.6242     0.8994   160.9600     2.4633     0.0006
  505   10.080   4901.09     2.3405     0.0208     0.1026     0.1008     2.3834     0.8708   161.2800     2.2221     0.0006
  506   10.100   4902.05     2.0789     0.0193     0.1043     0.1010     2.1224     0.9019   161.6000     1.9608     0.0013
  507   10.120   4903.06     1.8919     0.0226     0.1054     0.1012     1.9361     1.1836   161.9200     1.7742     0.0023
  508   10.140   4904.04     2.0380     0.0199     0.1056     0.1014     2.0823     1.0251   162.2400     1.9200     0.0021
  509   10.160   4905.05     2.5951     0.0193     0.1020     0.1016     2.6387     0.7893   162.5600     2.4761     0.0009
  510   10.180   4906.01     3.1818     0.0192     0.0808     0.1018     3.2207     0.6395   162.8800     3.0578    -0.0029
  511   10.200   4906.98     3.6302     0.0198     0.0575     0.1020     3.6522     0.5581   163.2000     3.4890    -0.0142
  512   10.220   4907.91     3.4986     0.0205     0.0631     0.1022     3.5275     0.5758   163.5200     3.3640    -0.0099
  513   10.240   4908.91     3.3002     0.0217     0.0823     0.1024     3.3305     0.6474   163.8400     3.1666    -0.0096
  514   10.260   4909.88     3.0817     0.0228     0.0922     0.1026     3.1195     0.7232   164.1600     2.9554    -0.0042
  515   10.280   4910.87     2.8175     0.0233     0.0951     0.1028     2.8569     0.8060   164.4800     2.6924    -0.0033
  516   10.300   4911.86     2.4791     0.0295     0.0973     0.1030     2.5195     1.1488   164.8000     2.3547    -0.0029
  517   10.320   4912.80     2.1033     0.0348     0.1042     0.1032     2.1458     1.5812   165.1200     1.9807    -0.0010
  518   10.340   4913.78     1.6860     0.0343     0.1050     0.1034     1.7306     1.9232   165.4400     1.5652     0.0019
  519   10.360   4914.72     1.3154     0.0305     0.1062     0.1036     1.3597     2.1799   165.7600     1.1939     0.0015
  520   10.380   4915.70     1.0603     0.0263     0.1121     0.1038     1.1066     2.3626   166.0800     0.9405     0.0068
  521   10.400   4916.67     0.7951     0.0231     0.1286     0.1040     0.8460     2.6098   166.4000     0.6796     0.0258
  522   10.420   4917.65     0.5640     0.0210     0.1851     0.1042     0.6321     3.3987   166.7200     0.4653     0.1280
  523   10.440   4918.63     0.4003     0.0152     0.2623     0.1044     0.5000     3.5578   167.0400     0.3329     0.4031
  524   10.460   4919.63     0.3785     0.0098     0.2960     0.1046     0.4996     2.5826   167.3600     0.3323     0.5530
  525   10.480   4920.57     0.3836     0.0079     0.3073     0.1048     0.5120     2.0776   167.6800     0.3443     0.5837
  526   10.500   4921.52     0.4290     0.0086     0.3025     0.1050     0.5564     2.0574   168.0000     0.3884     0.5110
  527   10.520   4922.51     0.4998     0.0080     0.3211     0.1052     0.6311     1.6985   168.3200     0.4628     0.4497
  528   10.540   4923.53     0.7489     0.0086     0.3294     0.1054     0.8891     1.3273   168.6400     0.7204     0.3236
  529   10.560   4924.50     1.2780     0.0127     0.2300     0.1056     1.3934     1.1418   168.9600     1.2244     0.1424
  530   10.580   4925.48     1.7045     0.0233     0.0960     0.1058     1.7616     1.4461   169.2800     1.5923     0.0196
  531   10.600   4926.45     1.7441     0.0245     0.0429     0.1060     1.7693     1.3801   169.6000     1.5997    -0.0290
  532   10.620   4927.41     1.4685     0.0225     0.0561     0.1062     1.4867     1.4543   169.9200     1.3167    -0.0476
  533   10.640   4928.42     1.1176     0.0212     0.1016     0.1064     1.1530     1.7729   170.2400     0.9828    -0.0217
  534   10.660   4929.35     0.8899     0.0204     0.1278     0.1066     0.9419     2.1719   170.5600     0.7713     0.0225
  535   10.680   4930.35     0.5650     0.0192     0.1780     0.1068     0.6278     3.0499   170.8800     0.4569     0.0969
  536   10.700   4931.33     0.4066     0.0174     0.2563     0.1070     0.5090     4.0603   171.2000     0.3378     0.4054
  537   10.720   4932.31     0.4010     0.0115     0.2786     0.1072     0.5156     2.9016   171.5200     0.3441     0.4815
  538   10.740   4933.27     0.4021     0.0089     0.2904     0.1074     0.5223     2.2113   171.8400     0.3505     0.5098
  539   10.760   4934.25     0.4049     0.0082     0.3014     0.1076     0.5288     2.0436   172.1600     0.3566     0.5257
  540   10.780   4935.26     0.4186     0.0083     0.3116     0.1078     0.5481     2.0154   172.4800     0.3756     0.5339
  541   10.800   4936.19     0.4468     0.0090     0.3165     0.1080     0.5794     2.0326   172.8000     0.4066     0.5105
  542   10.820   4937.18     0.4745     0.0100     0.3237     0.1082     0.6077     2.1484   173.1200     0.4346     0.4812
  543   10.840   4938.18     0.8140     0.0208     0.3379     0.1084     0.9566     3.1767   173.4400     0.7832     0.3052
  544   10.860   4939.13     1.6100     0.0313     0.2210     0.1086     1.7337     2.2380   173.7600     1.5599     0.1218
  545   10.880   4940.14     1.7244     0.0309     0.1011     0.1088     1.7727     1.7309   174.0800     1.5987     0.0038
  546   10.900   4941.10     1.3440     0.0275     0.0857     0.1090     1.3795     1.8978   174.4000     1.2051    -0.0205
  547   10.920   4942.06     1.0353     0.0272     0.1098     0.1092     1.0768     2.4934   174.7200     0.9021    -0.0108
  548   10.940   4943.01     0.8181     0.0254     0.1212     0.1094     0.8696     2.8958   175.0400     0.6946     0.0189
  549   10.960   4943.99     0.5906     0.0223     0.1498     0.1096     0.6457     3.5577   175.3600     0.4703     0.0483
  550   10.980   4944.97     0.4634     0.0185     0.2579     0.1098     0.5607     3.9362   175.6800     0.3850     0.3158
  551   11.000   4945.93     0.5186     0.0121     0.2726     0.1100     0.6313     2.3660   176.0000     0.4553     0.3483
  552   11.020   4946.93     0.5002    -0.0106     0.2727     0.1102     0.6180    -2.2219   176.3200     0.4417     0.3888
  553   11.040   4947.93     0.6072    -0.0305     0.2610     0.1104     0.7147    -5.0262   176.6400     0.5381     0.2706
  554   11.060   4948.87     0.5378    -0.0434     0.3058     0.1106     0.6591    -7.9268   176.9600     0.4821     0.3700
  555   11.080   4949.86     0.4967     0.0173     0.3257     0.1108     0.6308     3.4308   177.2800     0.4535     0.4598
  556   11.100   4950.84     0.5390     0.0283     0.3520     0.1110     0.6816     5.4814   177.6000     0.5040     0.4539
  557   11.120   4951.83     3.0189     0.0520     0.2291     0.1112     3.1630     3.4653   177.9200     2.9851     0.0829
  558   11.140   4952.83     5.6286     0.0917     0.0299     0.1114     5.6421     1.6574   178.2400     5.4639    -0.0145
  559   11.160   4953.82     5.9454     0.1052     0.0724     0.1116     5.9651     1.7560   178.5600     5.7865    -0.0112
  560   11.180   4955.00     6.1140     0.4006     0.1264     0.1118     6.1485     7.1501   178.8800     5.9696    -0.0050
  561   11.200   4957.71     4.7715     0.7883     0.1061     0.1120     4.8165    15.1521   179.2000     4.6373    -0.0011
  562   11.220   4958.68     2.3075     0.7081     0.1201     0.1122     2.3572    25.6598   179.5200     2.1777     0.0030
  563   11.240   4959.63     1.1575     0.5049     0.1312     0.1124     1.2104    38.4796   179.8400     1.0305     0.0135
  564   11.260   4960.61     0.8920                0.1295     0.1126     0.9470              180.1600     0.7668     0.0248
  565   11.280   4961.73     4.4700                0.1282     0.1128     4.5275              180.4800     4.3470     0.0077
  566   11.300   4971.50    23.6843                0.1043     0.1130    23.7297              180.8000    23.5489     0.0005
  567   11.320   4982.88    32.3644                0.0937     0.1132    32.4058              181.1200    32.2247    -0.0004
  568   11.340   5009.83    40.7566                0.0799     0.1134    40.7922              181.4400    40.6107    -0.0007
  569   11.355   5033.78    45.7858                           0.1136    45.8198              181.6808    45.6381    -0.0007
 
 
