

 Program UNIPLOT                         version 05.36.02
 _______________
 (c) Fugro Netherlands Marine, Nootdorp, The Netherlands


 ASCII representation of data plotted on a graph.

 This ASCII file presents data interpolated to values per fixed depth interval.
 The data are corrected for the depth-offset differences between the various 
 transducers in the penetrometer.

 The records at the start of penetration may include no values or anomalous
 values where a depth offset implies incomplete penetration of a particular
 sensor into the ground.

 The records at the end of penetration may include no values for data channels
 where the transducer did not reach this depth.

 The reference level for test values is (1) the ground surface for onshore tests and (2) the seafloor for nearshore and offshore tests.

 UNICAS data file          : CPT-1025.000                            
 Output using command file : PlotASCII.cmd

 ASCII file created at : date          :27-Apr-2022
                         time          :16:05:18
 Project number                        :20024805                                                                                            
 Date of testing                       :24-Apr-2022                                                                                         
 Location                              :Hong Kong Offshore Wind Farm Project                                                                
 Test name                             :CPT-1025
 Penetrometer                          :F7.5CKE2HAW2/B/3342
 Serial no                             :1701-3342

 Table description:
 Column ID                             :Parameter name
 ___________________________________________________________________________________
 Rec                                   :Record ID, Record ID [-]
 Depth                                 :Depth, Depth [m]
 Time                                  :Time, Time [s]
 Cone                                  :Cone Resistance, Cone Resistance [MPa]
 Friction                              :Sleeve Friction, Sleeve Friction [MPa]
 Pore 2                                :Porewater Pressure, Porewater Pressure at Shoulder [MPa]
 HydroPress                            :Hydrostatic Pressure, Hydrostatic Pressure [MPa]
 qt                                    :Total Cone Resistance, Total Cone Resistance [MPa]
 Fric_ratio                            :Friction Ratio, Friction Ratio [%]
 SigmaVert                             :Vertical stress, Vertical stress [kPa] as specified in ground model
 Qnet                                  :Net Cone Resistance, Net Cone Resistance [MPa], unit weight as specified in ground model
 Bq                                    :Porewater Pressure Ratio, Porewater Pressure Ratio [-], unit weight as specified in ground model


 Data table:
  Rec    Depth      Time       Cone   Friction     Pore 2 HydroPress         qt Fric_ratio  SigmaVert       Qnet         Bq
   No        m         s        MPa        MPa        MPa        MPa        MPa          %        kPa        MPa          -
    1    0.000   1454.75     0.0000                           0.0000     0.0000                0.0000     0.0000           
    2    0.020   1455.70     0.0021                0.0001     0.0002     0.0021                0.3200     0.0018    -0.0934
    3    0.040   1456.66     0.0068                0.0000     0.0004     0.0069                0.6400     0.0062    -0.0498
    4    0.060   1457.61     0.0075                0.0001     0.0006     0.0075                0.9600     0.0065    -0.0929
    5    0.080   1458.55     0.0117     0.0007     0.0002     0.0008     0.0118     7.0011     1.2800     0.0105    -0.0470
    6    0.100   1459.52     0.0107     0.0010     0.0002     0.0010     0.0108     8.2436     1.6000     0.0092    -0.0872
    7    0.120   1460.48     0.0124     0.0008    -0.0003     0.0012     0.0122     7.7008     1.9200     0.0103    -0.1640
    8    0.140   1461.42     0.0161     0.0014    -0.0012     0.0014     0.0158    10.0255     2.2400     0.0135    -0.1647
    9    0.160   1462.39     0.0192     0.0012    -0.0023     0.0016     0.0185     6.4469     2.5600     0.0160    -0.1910
   10    0.180   1463.35     0.0200     0.0014    -0.0022     0.0018     0.0192     6.8878     2.8800     0.0163    -0.2301
   11    0.200   1464.28     0.0191     0.0014    -0.0047     0.0020     0.0175     6.9450     3.2000     0.0143    -0.3919
   12    0.220   1465.25     0.0185     0.0015    -0.0065     0.0022     0.0157     8.2280     3.5200     0.0121    -0.7501
   13    0.240   1466.20     0.0202     0.0020    -0.0045     0.0024     0.0177     8.7935     3.8400     0.0139    -0.6093
   14    0.260   1467.16     0.0212     0.0021    -0.0044     0.0026     0.0195    10.7051     4.1600     0.0154    -0.4325
   15    0.280   1468.12     0.0171     0.0018    -0.0027     0.0028     0.0154     9.0047     4.4800     0.0109    -0.6229
   16    0.300   1469.07     0.0171     0.0019     0.0000     0.0030     0.0171    11.2537     4.8000     0.0123    -0.2511
   17    0.320   1470.03     0.0172     0.0021     0.0002     0.0032     0.0170    12.8657     5.1200     0.0119    -0.3165
   18    0.340   1470.96     0.0171     0.0015     0.0013     0.0034     0.0172     8.6001     5.4400     0.0118    -0.2749
   19    0.360   1471.92     0.0185     0.0018    -0.0008     0.0036     0.0186     9.6894     5.7600     0.0128    -0.2746
   20    0.380   1472.89     0.0193     0.0016     0.0031     0.0038     0.0201     8.5292     6.0800     0.0140    -0.1314
   21    0.400   1473.85     0.0187     0.0017     0.0032     0.0040     0.0195     9.5916     6.4000     0.0131    -0.1499
   22    0.420   1474.77     0.0169     0.0014     0.0046     0.0042     0.0187     8.0149     6.7200     0.0119     0.0049
   23    0.440   1475.73     0.0164     0.0016     0.0047     0.0044     0.0185    11.9086     7.0400     0.0115     0.0519
   24    0.460   1476.67     0.0160     0.0016     0.0048     0.0046     0.0181     9.9470     7.3600     0.0107     0.0319
   25    0.480   1477.61     0.0168     0.0015     0.0028     0.0048     0.0182     9.4957     7.6800     0.0105    -0.1493
   26    0.500   1478.59     0.0127     0.0015     0.0028     0.0050     0.0139     8.7816     8.0000     0.0059    -0.4223
   27    0.520   1479.56     0.0119     0.0015     0.0020     0.0052     0.0128    12.5377     8.3200     0.0045    -0.6929
   28    0.540   1480.53     0.0122     0.0018     0.0044     0.0054     0.0137    12.9276     8.6400     0.0050    -0.3661
   29    0.560   1481.48     0.0113     0.0016     0.0049     0.0056     0.0133    13.9220     8.9600     0.0044    -0.1799
   30    0.580   1482.41     0.0130     0.0020     0.0057     0.0058     0.0151    16.6080     9.2800     0.0058    -0.1313
   31    0.600   1483.35     0.0124     0.0019     0.0065     0.0060     0.0152    15.0305     9.6000     0.0056     0.0880
   32    0.620   1484.31     0.0127     0.0019     0.0060     0.0062     0.0152    13.3533     9.9200     0.0053    -0.0449
   33    0.640   1485.26     0.0082     0.0016     0.0063     0.0064     0.0100    16.2971    10.2400    -0.0002     4.3432
   34    0.660   1486.22     0.0132     0.0017     0.0075     0.0066     0.0159    14.7526    10.5600     0.0054    -0.0251
   35    0.680   1487.18     0.0082     0.0016     0.0087     0.0068     0.0116    16.2681    10.8800     0.0007           
   36    0.700   1488.14     0.0096     0.0015     0.0100     0.0070     0.0137    15.2783    11.2000     0.0025     1.1166
   37    0.720   1489.10     0.0077     0.0017     0.0105     0.0072     0.0120    21.2547    11.5200     0.0005     6.3951
   38    0.740   1490.08     0.0121     0.0017     0.0104     0.0074     0.0165    17.1335    11.8400     0.0046     0.6993
   39    0.760   1491.05     0.0117     0.0017     0.0101     0.0076     0.0159    13.0092    12.1600     0.0038     0.7084
   40    0.780   1491.98     0.0102     0.0017     0.0115     0.0078     0.0148    15.8246    12.4800     0.0023     1.3489
   41    0.800   1492.95     0.0141     0.0020     0.0128     0.0080     0.0194    16.9922    12.8000     0.0066     0.7029
   42    0.820   1493.89     0.0101     0.0021     0.0140     0.0082     0.0158    17.0168    13.1200     0.0027     2.2388
   43    0.840   1494.87     0.0117     0.0020     0.0152     0.0084     0.0179    17.2665    13.4400     0.0045     1.4503
   44    0.860   1495.80     0.0152     0.0021     0.0146     0.0086     0.0212    15.1242    13.7600     0.0074     0.7708
   45    0.880   1496.75     0.0163     0.0020     0.0145     0.0088     0.0225    12.4002    14.0800     0.0084     0.6925
   46    0.900   1497.70     0.0197     0.0020     0.0138     0.0090     0.0255    12.3639    14.4000     0.0111     0.4462
   47    0.920   1507.96     0.0153     0.0027     0.0124     0.0092     0.0208    18.0881    14.7200     0.0060     0.7025
   48    0.940   1532.20     0.0178     0.0022     0.0104     0.0094     0.0224    15.1164    15.0400     0.0074     0.3076
   49    0.960   1552.90     0.0203     0.0020     0.0120     0.0096     0.0245    11.7018    15.3600     0.0092     0.0486
   50    0.980   1553.89     0.0208     0.0020     0.0131     0.0098     0.0263     9.9020    15.6800     0.0106     0.3135
   51    1.000   1554.85     0.0194     0.0019     0.0139     0.0100     0.0244     9.0324    16.0000     0.0084     0.2355
   52    1.020   1555.79     0.0239     0.0022     0.0173     0.0102     0.0307    10.2264    16.3200     0.0144     0.4062
   53    1.040   1556.71     0.0248     0.0021     0.0187     0.0104     0.0325    10.0642    16.6400     0.0158     0.5079
   54    1.060   1557.70     0.0293     0.0021     0.0165     0.0106     0.0364     7.9461    16.9600     0.0195     0.3375
   55    1.080   1558.65     0.0308     0.0020     0.0174     0.0108     0.0379     6.5060    17.2800     0.0206     0.2948
   56    1.100   1559.62     0.0324     0.0018     0.0148     0.0110     0.0391     5.5605    17.6000     0.0215     0.2360
   57    1.120   1560.54     0.0316     0.0020     0.0160     0.0112     0.0379     6.0870    17.9200     0.0200     0.1927
   58    1.140   1561.48     0.0335     0.0020     0.0184     0.0114     0.0406     5.9878    18.2400     0.0224     0.2489
   59    1.160   1562.44     0.0358     0.0021     0.0163     0.0116     0.0436     5.9873    18.5600     0.0250     0.2703
   60    1.180   1563.40     0.0353     0.0022     0.0175     0.0118     0.0425     6.1920    18.8800     0.0236     0.2225
   61    1.200   1564.39     0.0343     0.0021     0.0166     0.0120     0.0419     5.9937    19.2000     0.0227     0.2700
   62    1.220   1565.31     0.0363     0.0023     0.0176     0.0122     0.0431     6.6458    19.5200     0.0235     0.1637
   63    1.240   1566.30     0.0374     0.0022     0.0218     0.0124     0.0466     5.9901    19.8400     0.0268     0.3622
   64    1.260   1567.21     0.0413     0.0025     0.0228     0.0126     0.0516     6.2410    20.1600     0.0314     0.3726
   65    1.280   1568.19     0.0409     0.0024     0.0197     0.0128     0.0494     6.5395    20.4800     0.0289     0.2590
   66    1.300   1569.13     0.0432     0.0025     0.0222     0.0130     0.0522     6.0922    20.8000     0.0314     0.2648
   67    1.320   1570.08     0.0412     0.0024     0.0253     0.0132     0.0515     5.7242    21.1200     0.0304     0.3764
   68    1.340   1571.06     0.0445     0.0027     0.0220     0.0134     0.0542     6.5026    21.4400     0.0328     0.2989
   69    1.360   1572.01     0.0419     0.0025     0.0214     0.0136     0.0508     5.7399    21.7600     0.0291     0.2643
   70    1.380   1572.95     0.0447     0.0022     0.0244     0.0138     0.0542     5.1526    22.0800     0.0321     0.2696
   71    1.400   1573.93     0.0485     0.0027     0.0271     0.0140     0.0598     5.5750    22.4000     0.0374     0.3497
   72    1.420   1574.87     0.0526     0.0027     0.0308     0.0142     0.0654     5.4557    22.7200     0.0427     0.3816
   73    1.440   1575.84     0.0569     0.0027     0.0266     0.0144     0.0691     4.8518    23.0400     0.0461     0.3191
   74    1.460   1576.78     0.0657     0.0031     0.0266     0.0146     0.0769     5.1079    23.3600     0.0536     0.2249
   75    1.480   1577.73     0.0709     0.0031     0.0226     0.0148     0.0812     4.5749    23.6800     0.0575     0.1669
   76    1.500   1578.68     0.0662     0.0033     0.0218     0.0150     0.0750     4.8532    24.0000     0.0510     0.1148
   77    1.520   1579.61     0.0594     0.0029     0.0239     0.0152     0.0689     4.7382    24.3200     0.0446     0.1669
   78    1.540   1580.57     0.0599     0.0029     0.0318     0.0154     0.0720     4.7743    24.6400     0.0474     0.2829
   79    1.560   1581.51     0.0594     0.0027     0.0364     0.0156     0.0742     4.5565    24.9600     0.0492     0.4000
   80    1.580   1582.47     0.0589     0.0026     0.0389     0.0158     0.0751     4.4455    25.2800     0.0498     0.4560
   81    1.600   1583.42     0.0541     0.0023     0.0354     0.0160     0.0696     4.0150    25.6000     0.0440     0.4740
   82    1.620   1584.34     0.0504     0.0023     0.0318     0.0162     0.0639     4.5513    25.9200     0.0380     0.4207
   83    1.640   1585.32     0.0511     0.0025     0.0318     0.0164     0.0643     4.7751    26.2400     0.0380     0.3948
   84    1.660   1586.27     0.0570     0.0025     0.0370     0.0166     0.0717     4.8584    26.5600     0.0451     0.4077
   85    1.680   1587.23     0.0612     0.0022     0.0352     0.0168     0.0771     3.7756    26.8800     0.0502     0.4184
   86    1.700   1588.17     0.0638     0.0021     0.0305     0.0170     0.0772     3.2936    27.2000     0.0500     0.3007
   87    1.720   1589.13     0.0636     0.0024     0.0256     0.0172     0.0747     3.7844    27.5200     0.0472     0.1935
   88    1.740   1590.08     0.0636     0.0026     0.0270     0.0174     0.0748     3.9404    27.8400     0.0470     0.2019
   89    1.760   1591.03     0.0651     0.0032     0.0256     0.0176     0.0760     4.9660    28.1600     0.0478     0.1729
   90    1.780   1591.99     0.0716     0.0033     0.0338     0.0178     0.0841     4.7774    28.4800     0.0556     0.2131
   91    1.800   1592.94     0.0763     0.0033     0.0376     0.0180     0.0918     4.4829    28.8000     0.0630     0.3022
   92    1.820   1593.92     0.0898     0.0036     0.0250     0.0182     0.1024     4.2030    29.1200     0.0733     0.1604
   93    1.840   1594.87     0.0840     0.0035     0.0162     0.0184     0.0919     3.9232    29.4400     0.0625     0.0059
   94    1.860   1595.83     0.0768     0.0036     0.0144     0.0186     0.0838     4.4875    29.7600     0.0540    -0.0376
   95    1.880   1596.75     0.0710     0.0035     0.0161     0.0188     0.0773     5.0086    30.0800     0.0472    -0.0797
   96    1.900   1597.71     0.0669     0.0032     0.0235     0.0190     0.0755     5.0063    30.4000     0.0451     0.0342
   97    1.920   1598.66     0.0589     0.0030     0.0277     0.0192     0.0703     4.8266    30.7200     0.0395     0.1997
   98    1.940   1599.61     0.0496     0.0029     0.0314     0.0194     0.0625     5.5399    31.0400     0.0315     0.3634
   99    1.960   1600.57     0.0471     0.0028     0.0338     0.0196     0.0607     5.4991    31.3600     0.0294     0.4478
  100    1.980   1601.52     0.0466     0.0026     0.0378     0.0198     0.0616     5.4699    31.6800     0.0300     0.5384
  101    2.000   1602.48     0.0481     0.0026     0.0418     0.0200     0.0649     5.6689    32.0000     0.0329     0.6073
  102    2.020   1603.44     0.0539     0.0029     0.0436     0.0202     0.0719     5.5013    32.3200     0.0396     0.5731
  103    2.040   1604.39     0.0537     0.0029     0.0411     0.0204     0.0714     5.4034    32.6400     0.0387     0.5586
  104    2.060   1605.31     0.0532     0.0032     0.0409     0.0206     0.0718     5.9660    32.9600     0.0388     0.6090
  105    2.080   1606.29     0.0515     0.0033     0.0446     0.0208     0.0691     6.2850    33.2800     0.0358     0.5894
  106    2.100   1607.22     0.0581     0.0031     0.0494     0.0210     0.0781     5.6380    33.6000     0.0445     0.5963
  107    2.120   1608.21     0.0656     0.0034     0.0534     0.0212     0.0880     5.4420    33.9200     0.0541     0.5963
  108    2.140   1609.13     0.0749     0.0032     0.0551     0.0214     0.0977     4.5158    34.2400     0.0634     0.5162
  109    2.160   1610.11     0.0798     0.0033     0.0555     0.0216     0.1037     4.1213    34.5600     0.0691     0.5096
  110    2.180   1611.07     0.0824     0.0031     0.0547     0.0218     0.1053     3.7210    34.8800     0.0704     0.4642
  111    2.200   1612.02     0.0818     0.0029     0.0555     0.0220     0.1043     3.6414    35.2000     0.0691     0.4575
  112    2.220   1612.96     0.0805     0.0033     0.0583     0.0222     0.1045     3.9807    35.5200     0.0690     0.5093
  113    2.240   1613.94     0.0791     0.0032     0.0566     0.0224     0.1026     4.0505    35.8400     0.0667     0.5006
  114    2.260   1614.90     0.0765     0.0031     0.0537     0.0226     0.1000     4.0154    36.1600     0.0639     0.5231
  115    2.280   1615.85     0.0743     0.0031     0.0477     0.0228     0.0953     4.1173    36.4800     0.0588     0.4639
  116    2.300   1616.82     0.0771     0.0035     0.0426     0.0230     0.0966     4.5684    36.8000     0.0598     0.3923
  117    2.320   1617.77     0.0836     0.0040     0.0279     0.0232     0.0962     4.9209    37.1200     0.0590     0.1143
  118    2.340   1618.68     0.0873     0.0042     0.0257     0.0234     0.0982     5.1364    37.4400     0.0607     0.0411
  119    2.360   1619.67     0.0955     0.0043     0.0183     0.0236     0.1059     4.7930    37.7600     0.0682     0.0177
  120    2.380   1620.63     0.1106     0.0048     0.0132     0.0238     0.1160     4.6026    38.0800     0.0779    -0.1423
  121    2.400   1621.60     0.1092     0.0050     0.0192     0.0240     0.1166     4.5383    38.4000     0.0782    -0.0825
  122    2.420   1622.52     0.1102     0.0050     0.0131     0.0242     0.1164     4.5405    38.7200     0.0777    -0.1190
  123    2.440   1623.47     0.1149     0.0048     0.0037     0.0244     0.1180     4.2807    39.0400     0.0789    -0.2144
  124    2.460   1624.43     0.1145     0.0046     0.0068     0.0246     0.1169     3.9241    39.3600     0.0775    -0.2451
  125    2.480   1625.36     0.1086     0.0044     0.0186     0.0248     0.1146     3.9576    39.6800     0.0749    -0.1413
  126    2.500   1626.33     0.1040     0.0040     0.0283     0.0250     0.1146     3.8470    40.0000     0.0746     0.0006
  127    2.520   1627.28     0.1012     0.0039     0.0366     0.0252     0.1160     3.8425    40.3200     0.0757     0.1347
  128    2.540   1628.24     0.1005     0.0036     0.0247     0.0254     0.1127     3.6185    40.6400     0.0721     0.0508
  129    2.560   1629.22     0.0914     0.0034     0.0280     0.0256     0.1018     3.7244    40.9600     0.0609    -0.0154
  130    2.580   1630.14     0.0899     0.0039     0.0356     0.0258     0.1043     4.4159    41.2800     0.0630     0.1324
  131    2.600   1631.11     0.0914     0.0036     0.0442     0.0260     0.1085     4.0544    41.6000     0.0669     0.2206
  132    2.620   1632.05     0.0923     0.0041     0.0410     0.0262     0.1109     4.4056    41.9200     0.0689     0.2603
  133    2.640   1633.03     0.0888     0.0038     0.0403     0.0264     0.1053     4.2878    42.2400     0.0630     0.2037
  134    2.660   1633.98     0.0983     0.0036     0.0291     0.0266     0.1123     3.9195    42.5600     0.0697     0.0966
  135    2.680   1634.94     0.0983     0.0034     0.0507     0.0268     0.1181     3.4212    42.8800     0.0753     0.2714
  136    2.700   1635.90     0.0995     0.0035     0.0494     0.0270     0.1219     3.5726    43.2000     0.0787     0.3340
  137    2.720   1636.85     0.0964     0.0038     0.0477     0.0272     0.1172     3.8134    43.5200     0.0737     0.3020
  138    2.740   1637.79     0.0925     0.0035     0.0504     0.0274     0.1130     3.8106    43.8400     0.0692     0.3106
  139    2.760   1638.75     0.0969     0.0038     0.0522     0.0276     0.1176     4.0876    44.1600     0.0734     0.2951
  140    2.780   1639.70     0.0984     0.0041     0.0567     0.0278     0.1215     4.1478    44.4800     0.0770     0.3536
  141    2.800   1640.68     0.0986     0.0040     0.0616     0.0280     0.1241     3.9538    44.8000     0.0793     0.4130
  142    2.820   1641.64     0.0947     0.0041     0.0600     0.0282     0.1206     4.2759    45.1200     0.0754     0.4445
  143    2.840   1642.57     0.0886     0.0043     0.0614     0.0284     0.1137     4.6026    45.4400     0.0682     0.4596
  144    2.860   1643.53     0.0934     0.0045     0.0622     0.0286     0.1195     4.9292    45.7600     0.0738     0.4545
  145    2.880   1644.46     0.1157     0.0047     0.0669     0.0288     0.1426     4.5302    46.0800     0.0966     0.3661
  146    2.900   1645.42     0.1211     0.0047     0.0566     0.0290     0.1488     3.9245    46.4000     0.1024     0.3587
  147    2.920   1653.94     0.1241     0.0055     0.0507     0.0292     0.1461     4.5506    46.7200     0.0993     0.2343
  148    2.940   1667.43     0.1279     0.0056     0.0460     0.0294     0.1479     4.5722    47.0400     0.1008     0.1826
  149    2.960   1680.93     0.1316     0.0057     0.0412     0.0296     0.1496     4.6808    47.3600     0.1023     0.1308
  150    2.980   1688.72     0.1312     0.0053     0.0401     0.0298     0.1486     3.9487    47.6800     0.1009     0.1154
  151    3.000   1689.67     0.1310     0.0050     0.0440     0.0300     0.1488     3.9002    48.0000     0.1008     0.1211
  152    3.020   1690.64     0.1402     0.0049     0.0503     0.0302     0.1601     3.5154    48.3200     0.1118     0.1552
  153    3.040   1691.53     0.1538     0.0050     0.0541     0.0304     0.1763     3.3711    48.6400     0.1277     0.1815
  154    3.060   1692.54     0.1565     0.0045     0.0466     0.0306     0.1781     2.9088    48.9600     0.1291     0.1609
  155    3.080   1693.46     0.1588     0.0046     0.0386     0.0308     0.1752     2.8508    49.2800     0.1260     0.0652
  156    3.100   1694.44     0.1522     0.0047     0.0443     0.0310     0.1704     3.0638    49.6000     0.1208     0.1022
  157    3.120   1695.37     0.1429     0.0045     0.0510     0.0312     0.1626     3.1035    49.9200     0.1127     0.1404
  158    3.140   1696.31     0.1411     0.0041     0.0645     0.0314     0.1669     2.8834    50.2400     0.1167     0.2572
  159    3.160   1697.30     0.1434     0.0040     0.0695     0.0316     0.1713     2.8143    50.5600     0.1207     0.2886
  160    3.180   1698.25     0.1426     0.0037     0.0767     0.0318     0.1741     2.6250    50.8800     0.1233     0.3517
  161    3.200   1699.22     0.1407     0.0036     0.0801     0.0320     0.1738     2.5355    51.2000     0.1226     0.3811
  162    3.220   1700.17     0.1489     0.0033     0.0808     0.0322     0.1823     2.2689    51.5200     0.1308     0.3625
  163    3.240   1701.13     0.1544     0.0034     0.0837     0.0324     0.1896     2.2726    51.8400     0.1377     0.3721
  164    3.260   1702.08     0.1544     0.0037     0.0816     0.0326     0.1889     2.3635    52.1600     0.1367     0.3625
  165    3.280   1703.03     0.1544     0.0035     0.0771     0.0328     0.1878     2.2862    52.4800     0.1354     0.3458
  166    3.300   1703.97     0.1470     0.0037     0.0638     0.0330     0.1759     2.4625    52.8000     0.1231     0.2896
  167    3.320   1704.92     0.1458     0.0038     0.0568     0.0332     0.1695     2.6303    53.1200     0.1164     0.2003
  168    3.340   1705.87     0.1389     0.0034     0.0607     0.0334     0.1638     2.4031    53.4400     0.1104     0.2347
  169    3.360   1706.79     0.1379     0.0031     0.0639     0.0336     0.1642     2.2356    53.7600     0.1104     0.2632
  170    3.380   1707.76     0.1347     0.0034     0.0684     0.0338     0.1634     2.5254    54.0800     0.1094     0.3172
  171    3.400   1708.68     0.1349     0.0034     0.0668     0.0340     0.1649     2.5521    54.4000     0.1105     0.3388
  172    3.420   1709.64     0.1300     0.0040     0.0631     0.0342     0.1565     3.0233    54.7200     0.1018     0.2840
  173    3.440   1710.60     0.1261     0.0035     0.0611     0.0344     0.1511     2.7405    55.0400     0.0961     0.2603
  174    3.460   1711.55     0.1211     0.0038     0.0634     0.0346     0.1484     3.1672    55.3600     0.0930     0.3263
  175    3.480   1712.49     0.1248     0.0041     0.0586     0.0348     0.1506     3.3101    55.6800     0.0950     0.2818
  176    3.500   1713.44     0.1283     0.0038     0.0672     0.0350     0.1559     3.0095    56.0000     0.0999     0.3079
  177    3.520   1714.37     0.1302     0.0039     0.0580     0.0352     0.1588     3.0215    56.3200     0.1025     0.3199
  178    3.540   1715.36     0.1294     0.0039     0.0524     0.0354     0.1497     3.0187    56.6400     0.0930     0.1394
  179    3.560   1716.27     0.1261     0.0033     0.0665     0.0356     0.1524     2.5934    56.9600     0.0955     0.2845
  180    3.580   1717.22     0.1162     0.0032     0.0732     0.0358     0.1463     2.6831    57.2800     0.0890     0.4023
  181    3.600   1718.19     0.1132     0.0032     0.0710     0.0360     0.1429     2.7765    57.6000     0.0853     0.4079
  182    3.620   1719.15     0.1156     0.0036     0.0712     0.0362     0.1454     3.1353    57.9200     0.0874     0.3960
  183    3.640   1720.10     0.1150     0.0037     0.0743     0.0364     0.1458     3.1617    58.2400     0.0875     0.4216
  184    3.660   1721.06     0.1219     0.0041     0.0747     0.0366     0.1537     3.4519    58.5600     0.0951     0.4094
  185    3.680   1722.01     0.1296     0.0040     0.0645     0.0368     0.1581     3.1925    58.8800     0.0992     0.3144
  186    3.700   1722.97     0.1371     0.0040     0.0709     0.0370     0.1655     2.9850    59.2000     0.1063     0.2867
  187    3.720   1723.94     0.1428     0.0044     0.0677     0.0372     0.1731     3.1326    59.5200     0.1136     0.3076
  188    3.740   1724.89     0.1464     0.0046     0.0683     0.0374     0.1754     3.1909    59.8400     0.1156     0.2736
  189    3.760   1725.84     0.1473     0.0048     0.0667     0.0376     0.1758     3.2541    60.1600     0.1157     0.2623
  190    3.780   1726.78     0.1463     0.0045     0.0653     0.0378     0.1734     3.0978    60.4800     0.1129     0.2366
  191    3.800   1727.73     0.1479     0.0048     0.0630     0.0380     0.1752     3.1936    60.8000     0.1144     0.2349
  192    3.820   1728.66     0.1493     0.0046     0.0675     0.0382     0.1766     3.0433    61.1200     0.1154     0.2322
  193    3.840   1729.64     0.1470     0.0040     0.0715     0.0384     0.1768     2.7382    61.4400     0.1153     0.2820
  194    3.860   1730.59     0.1423     0.0044     0.0724     0.0386     0.1729     3.0211    61.7600     0.1111     0.3095
  195    3.880   1731.54     0.1362     0.0042     0.0807     0.0388     0.1681     3.0653    62.0800     0.1060     0.3476
  196    3.900   1732.49     0.1347     0.0040     0.0781     0.0390     0.1674     2.9096    62.4000     0.1050     0.3708
  197    3.920   1733.43     0.1340     0.0037     0.0801     0.0392     0.1672     2.8225    62.7200     0.1045     0.3812
  198    3.940   1734.38     0.1387     0.0034     0.0820     0.0394     0.1738     2.4858    63.0400     0.1107     0.3993
  199    3.960   1735.35     0.1404     0.0036     0.0892     0.0396     0.1768     2.6018    63.3600     0.1135     0.4154
  200    3.980   1736.29     0.1452     0.0038     0.0920     0.0398     0.1834     2.6682    63.6800     0.1198     0.4284
  201    4.000   1737.24     0.1544     0.0038     0.0837     0.0400     0.1900     2.5321    64.0000     0.1260     0.3553
  202    4.020   1738.21     0.1589     0.0041     0.0642     0.0402     0.1892     2.5673    64.3200     0.1249     0.2544
  203    4.040   1739.17     0.1612     0.0041     0.0701     0.0404     0.1871     2.5837    64.6400     0.1225     0.1746
  204    4.060   1740.12     0.1571     0.0041     0.0828     0.0406     0.1918     2.6280    64.9600     0.1268     0.3312
  205    4.080   1741.07     0.1523     0.0043     0.0792     0.0408     0.1851     2.7612    65.2800     0.1198     0.3111
  206    4.100   1742.05     0.1521     0.0038     0.0917     0.0410     0.1892     2.4933    65.6000     0.1236     0.3825
  207    4.120   1743.00     0.1490     0.0036     0.0945     0.0412     0.1883     2.4330    65.9200     0.1224     0.4270
  208    4.140   1743.92     0.1482     0.0035     0.0968     0.0414     0.1888     2.3427    66.2400     0.1225     0.4509
  209    4.160   1744.91     0.1481     0.0033     0.0945     0.0416     0.1882     2.2634    66.5600     0.1216     0.4426
  210    4.180   1745.86     0.1475     0.0035     0.0954     0.0418     0.1864     2.3422    66.8800     0.1195     0.4251
  211    4.200   1746.83     0.1474     0.0033     0.0944     0.0420     0.1884     2.2625    67.2000     0.1212     0.4586
  212    4.220   1747.75     0.1409     0.0032     0.0763     0.0422     0.1771     2.3062    67.5200     0.1095     0.4010
  213    4.240   1748.77     0.1406     0.0031     0.0886     0.0424     0.1761     2.1901    67.8400     0.1083     0.3893
  214    4.260   1749.72     0.1393     0.0036     0.1005     0.0426     0.1810     2.5985    68.1600     0.1128     0.5012
  215    4.280   1750.67     0.1381     0.0033     0.1024     0.0428     0.1808     2.3772    68.4800     0.1123     0.5233
  216    4.300   1751.62     0.1439     0.0036     0.1018     0.0430     0.1870     2.5116    68.8000     0.1182     0.5054
  217    4.320   1752.60     0.1414     0.0033     0.0970     0.0432     0.1821     2.3530    69.1200     0.1130     0.4756
  218    4.340   1753.56     0.1463     0.0033     0.1018     0.0434     0.1890     2.2528    69.4400     0.1196     0.4887
  219    4.360   1754.52     0.1490     0.0037     0.1018     0.0436     0.1914     2.4909    69.7600     0.1216     0.4716
  220    4.380   1755.47     0.1569     0.0040     0.0964     0.0438     0.1990     2.6338    70.0800     0.1289     0.4374
  221    4.400   1756.47     0.1569     0.0041     0.0962     0.0440     0.1972     2.6084    70.4000     0.1268     0.4105
  222    4.420   1757.40     0.1596     0.0040     0.0927     0.0442     0.2004     2.5443    70.7200     0.1297     0.4079
  223    4.440   1758.36     0.1615     0.0037     0.0875     0.0444     0.1994     2.3009    71.0400     0.1283     0.3569
  224    4.460   1759.31     0.1572     0.0035     0.0883     0.0446     0.1945     2.2006    71.3600     0.1231     0.3593
  225    4.480   1760.26     0.1486     0.0040     0.0948     0.0448     0.1878     2.6017    71.6800     0.1161     0.4182
  226    4.500   1761.22     0.1465     0.0036     0.1031     0.0450     0.1892     2.4890    72.0000     0.1172     0.4824
  227    4.520   1762.22     0.1453     0.0037     0.1024     0.0452     0.1871     2.5487    72.3200     0.1148     0.4739
  228    4.540   1763.17     0.1484     0.0038     0.1031     0.0454     0.1918     2.5753    72.6400     0.1192     0.4869
  229    4.560   1764.13     0.1461     0.0036     0.1019     0.0456     0.1901     2.4606    72.9600     0.1171     0.5046
  230    4.580   1765.07     0.1410     0.0036     0.0963     0.0458     0.1810     2.5050    73.2800     0.1077     0.4585
  231    4.600   1766.03     0.1433     0.0033     0.1034     0.0460     0.1860     2.3256    73.6000     0.1124     0.4949
  232    4.620   1766.97     0.1466     0.0035     0.1100     0.0462     0.1923     2.4175    73.9200     0.1184     0.5294
  233    4.640   1767.93     0.1483     0.0035     0.1044     0.0464     0.1940     2.3710    74.2400     0.1198     0.5219
  234    4.660   1768.90     0.1479     0.0033     0.0913     0.0466     0.1884     2.1885    74.5600     0.1138     0.4366
  235    4.680   1769.84     0.1558     0.0032     0.1070     0.0468     0.1977     2.1308    74.8800     0.1229     0.4312
  236    4.700   1770.77     0.1683     0.0035     0.1014     0.0470     0.2121     2.1354    75.2000     0.1369     0.4194
  237    4.720   1771.77     0.1787     0.0038     0.0896     0.0472     0.2173     2.1438    75.5200     0.1418     0.3163
  238    4.740   1772.70     0.1855     0.0045     0.0879     0.0474     0.2241     2.4905    75.8400     0.1483     0.3001
  239    4.760   1773.70     0.1961     0.0048     0.0736     0.0476     0.2294     2.4685    76.1600     0.1533     0.2072
  240    4.780   1774.63     0.1990     0.0054     0.0721     0.0478     0.2288     2.7540    76.4800     0.1523     0.1516
  241    4.800   1775.62     0.1980     0.0050     0.0725     0.0480     0.2282     2.5522    76.8000     0.1514     0.1577
  242    4.820   1776.53     0.1995     0.0058     0.0830     0.0482     0.2327     2.8488    77.1200     0.1556     0.1988
  243    4.840   1777.48     0.2082     0.0066     0.0925     0.0484     0.2455     3.1394    77.4400     0.1680     0.2402
  244    4.860   1778.44     0.2138     0.0064     0.0981     0.0486     0.2556     3.0105    77.7600     0.1778     0.2854
  245    4.880   1779.37     0.2188     0.0062     0.0809     0.0488     0.2541     2.8326    78.0800     0.1760     0.1999
  246    4.900   1780.33     0.2212     0.0063     0.0774     0.0490     0.2540     2.9185    78.4000     0.1756     0.1653
  247    4.920   1790.22     0.2316     0.0067     0.0794     0.0492     0.2646     2.9727    78.7200     0.1859     0.1578
  248    4.940   1807.43     0.2432     0.0072     0.0819     0.0494     0.2772     3.1934    79.0400     0.1982     0.1596
  249    4.960   1820.52     0.2557     0.0076     0.0774     0.0496     0.2895     3.0938    79.3600     0.2101     0.1469
  250    4.980   1821.49     0.2690     0.0075     0.0720     0.0498     0.2999     2.8484    79.6800     0.2202     0.1083
  251    5.000   1822.43     0.2727     0.0078     0.0639     0.0500     0.3009     2.8579    80.0000     0.2209     0.0776
  252    5.020   1823.40     0.2745     0.0078     0.0476     0.0502     0.2972     2.8716    80.3200     0.2169     0.0178
  253    5.040   1824.35     0.2661     0.0073     0.0356     0.0504     0.2841     2.6848    80.6400     0.2034    -0.0389
  254    5.060   1825.26     0.2439     0.0070     0.0315     0.0506     0.2550     2.7746    80.9600     0.1740    -0.1397
  255    5.080   1826.21     0.2096     0.0065     0.0473     0.0508     0.2274     2.9267    81.2800     0.1462    -0.0560
  256    5.100   1827.17     0.1988     0.0061     0.0676     0.0510     0.2235     2.9615    81.6000     0.1419     0.0540
  257    5.120   1828.12     0.1897     0.0055     0.0899     0.0512     0.2248     2.8918    81.9200     0.1429     0.2269
  258    5.140   1829.08     0.1910     0.0049     0.1043     0.0514     0.2329     2.5887    82.2400     0.1507     0.3218
  259    5.160   1830.03     0.1971     0.0047     0.1094     0.0516     0.2425     2.4002    82.5600     0.1600     0.3533
  260    5.180   1831.00     0.1984     0.0046     0.1114     0.0518     0.2451     2.3432    82.8800     0.1623     0.3661
  261    5.200   1831.97     0.2063     0.0046     0.1117     0.0520     0.2534     2.2590    83.2000     0.1702     0.3541
  262    5.220   1832.91     0.2116     0.0049     0.1092     0.0522     0.2583     2.3539    83.5200     0.1748     0.3375
  263    5.240   1833.85     0.2155     0.0049     0.1063     0.0524     0.2593     2.3144    83.8400     0.1754     0.2956
  264    5.260   1834.67     0.2098     0.0049     0.1031     0.0526     0.2540     2.2898    84.1600     0.1698     0.3099
  265    5.280   1835.62     0.2054     0.0048     0.0984     0.0528     0.2465     2.3594    84.4800     0.1620     0.2781
  266    5.300   1836.61     0.1938     0.0048     0.1011     0.0530     0.2361     2.4538    84.8000     0.1513     0.3157
  267    5.320   1837.57     0.1889     0.0047     0.1057     0.0532     0.2323     2.4727    85.1200     0.1472     0.3409
  268    5.340   1838.54     0.1862     0.0045     0.1123     0.0534     0.2330     2.4064    85.4400     0.1476     0.3930
  269    5.360   1839.47     0.1855     0.0042     0.1144     0.0536     0.2333     2.2751    85.7600     0.1475     0.4070
  270    5.380   1840.44     0.1888     0.0046     0.1138     0.0538     0.2368     2.4334    86.0800     0.1507     0.4014
  271    5.400   1841.43     0.1918     0.0044     0.1000     0.0540     0.2363     2.3241    86.4000     0.1499     0.3467
  272    5.420   1842.37     0.1905     0.0046     0.1017     0.0542     0.2323     2.3996    86.7200     0.1456     0.3124
  273    5.440   1843.34     0.1829     0.0042     0.1045     0.0544     0.2271     2.2838    87.0400     0.1401     0.3623
  274    5.460   1844.28     0.1820     0.0044     0.1022     0.0546     0.2244     2.4325    87.3600     0.1370     0.3384
  275    5.480   1845.24     0.1814     0.0044     0.1089     0.0548     0.2257     2.3747    87.6800     0.1380     0.3674
  276    5.500   1846.17     0.1850     0.0047     0.1143     0.0550     0.2322     2.5837    88.0000     0.1442     0.3981
  277    5.520   1846.97     0.1891     0.0045     0.1182     0.0552     0.2384     2.4082    88.3200     0.1501     0.4148
  278    5.540   1847.73     0.1893     0.0045     0.1113     0.0554     0.2384     2.3789    88.6400     0.1498     0.4112
  279    5.560   1848.56     0.1890     0.0045     0.1080     0.0556     0.2341     2.3352    88.9600     0.1451     0.3569
  280    5.580   1849.47     0.1866     0.0043     0.1086     0.0558     0.2320     2.2899    89.2800     0.1427     0.3662
  281    5.600   1850.47     0.1865     0.0045     0.1051     0.0560     0.2332     2.3947    89.6000     0.1436     0.3843
  282    5.620   1851.37     0.1790     0.0044     0.1042     0.0562     0.2222     2.3995    89.9200     0.1323     0.3522
  283    5.640   1852.31     0.1780     0.0044     0.1173     0.0564     0.2261     2.4413    90.2400     0.1358     0.4269
  284    5.660   1853.27     0.1779     0.0038     0.1235     0.0566     0.2289     2.1157    90.5600     0.1384     0.4690
  285    5.680   1854.22     0.1806     0.0041     0.1219     0.0568     0.2318     2.2718    90.8800     0.1409     0.4621
  286    5.700   1855.17     0.1818     0.0043     0.1247     0.0570     0.2338     2.3381    91.2000     0.1426     0.4682
  287    5.720   1856.13     0.1791     0.0042     0.1268     0.0572     0.2323     2.3538    91.5200     0.1408     0.4941
  288    5.740   1857.11     0.1737     0.0044     0.1237     0.0574     0.2261     2.4633    91.8400     0.1343     0.5023
  289    5.760   1858.11     0.1711     0.0043     0.1173     0.0576     0.2214     2.5065    92.1600     0.1293     0.4811
  290    5.780   1859.04     0.1727     0.0044     0.1211     0.0578     0.2220     2.5395    92.4800     0.1295     0.4611
  291    5.800   1859.98     0.1762     0.0045     0.1270     0.0580     0.2283     2.5956    92.8000     0.1355     0.4876
  292    5.820   1860.94     0.1759     0.0042     0.1279     0.0582     0.2304     2.3529    93.1200     0.1373     0.5204
  293    5.840   1861.87     0.1801     0.0039     0.1192     0.0584     0.2309     2.2021    93.4400     0.1374     0.4544
  294    5.860   1862.82     0.1764     0.0041     0.1174     0.0586     0.2242     2.3261    93.7600     0.1305     0.4231
  295    5.880   1863.76     0.1763     0.0040     0.1180     0.0588     0.2252     2.2285    94.0800     0.1311     0.4386
  296    5.900   1864.73     0.1815     0.0043     0.1207     0.0590     0.2325     2.4405    94.4000     0.1381     0.4531
  297    5.920   1865.68     0.1872     0.0046     0.1188     0.0592     0.2363     2.4898    94.7200     0.1416     0.4076
  298    5.940   1866.63     0.1860     0.0041     0.1271     0.0594     0.2382     2.2283    95.0400     0.1432     0.4530
  299    5.960   1867.57     0.1851     0.0044     0.1321     0.0596     0.2406     2.3587    95.3600     0.1452     0.4999
  300    5.980   1868.51     0.1851     0.0043     0.1297     0.0598     0.2391     2.3419    95.6800     0.1434     0.4794
  301    6.000   1869.46     0.1886     0.0041     0.1368     0.0600     0.2451     2.1577    96.0000     0.1491     0.4995
  302    6.020   1870.44     0.1873     0.0043     0.1391     0.0602     0.2453     2.2752    96.3200     0.1490     0.5229
  303    6.040   1871.38     0.1907     0.0050     0.1380     0.0604     0.2490     2.6311    96.6400     0.1524     0.5156
  304    6.060   1872.33     0.1923     0.0047     0.1260     0.0606     0.2500     2.4724    96.9600     0.1530     0.5014
  305    6.080   1873.24     0.1916     0.0049     0.1224     0.0608     0.2412     2.5436    97.2800     0.1440     0.3989
  306    6.100   1874.22     0.1895     0.0047     0.1300     0.0610     0.2427     2.4956    97.6000     0.1451     0.4528
  307    6.120   1875.17     0.1907     0.0050     0.1345     0.0612     0.2467     2.6522    97.9200     0.1488     0.4845
  308    6.140   1876.11     0.1897     0.0047     0.1432     0.0614     0.2486     2.4840    98.2400     0.1503     0.5232
  309    6.160   1877.07     0.1965     0.0047     0.1427     0.0616     0.2568     2.4588    98.5600     0.1582     0.5178
  310    6.180   1878.04     0.2015     0.0045     0.1418     0.0618     0.2615     2.2205    98.8800     0.1626     0.4986
  311    6.200   1879.00     0.2049     0.0049     0.1380     0.0620     0.2631     2.4058    99.2000     0.1639     0.4673
  312    6.220   1879.97     0.2103     0.0049     0.1389     0.0622     0.2679     2.3253    99.5200     0.1684     0.4442
  313    6.240   1880.90     0.2138     0.0051     0.1447     0.0624     0.2742     2.4180    99.8400     0.1743     0.4666
  314    6.260   1881.84     0.2177     0.0049     0.1441     0.0626     0.2779     2.2669   100.1600     0.1777     0.4542
  315    6.280   1882.81     0.2215     0.0055     0.1418     0.0628     0.2815     2.5249   100.4800     0.1810     0.4425
  316    6.300   1883.79     0.2238     0.0060     0.1365     0.0630     0.2818     2.6871   100.8000     0.1810     0.4151
  317    6.320   1884.71     0.2293     0.0065     0.1341     0.0632     0.2853     2.8494   101.1200     0.1841     0.3804
  318    6.340   1885.67     0.2355     0.0070     0.1349     0.0634     0.2924     3.0117   101.4400     0.1909     0.3770
  319    6.360   1886.62     0.2392     0.0073     0.1398     0.0636     0.2968     3.0885   101.7600     0.1951     0.3777
  320    6.380   1887.57     0.2448     0.0072     0.1382     0.0638     0.3037     2.9741   102.0800     0.2016     0.3792
  321    6.400   1901.82     0.2484     0.0076     0.1320     0.0640     0.3047     3.0764   102.4000     0.2023     0.3470
  322    6.420   1919.15     0.2518     0.0074     0.1257     0.0642     0.3055     3.0200   102.7200     0.2028     0.3144
  323    6.440   1936.47     0.2553     0.0073     0.1195     0.0644     0.3064     2.9884   103.0400     0.2033     0.2818
  324    6.460   1953.79     0.2587     0.0068     0.1179     0.0646     0.3072     2.6761   103.3600     0.2039     0.2492
  325    6.480   1955.85     0.2520     0.0072     0.1294     0.0648     0.3047     2.8403   103.6800     0.2010     0.3020
  326    6.500   1956.49     0.2466     0.0067     0.1328     0.0650     0.3026     2.7095   104.0000     0.1986     0.3441
  327    6.520   1957.11     0.2337     0.0068     0.1410     0.0652     0.2919     2.8726   104.3200     0.1876     0.3914
  328    6.540   1957.73     0.2287     0.0069     0.1427     0.0654     0.2881     2.9869   104.6400     0.1834     0.4138
  329    6.560   1958.39     0.2205     0.0068     0.1489     0.0656     0.2820     2.9848   104.9600     0.1770     0.4566
  330    6.580   1959.01     0.2185     0.0064     0.1542     0.0658     0.2826     2.9067   105.2800     0.1773     0.4902
  331    6.600   1959.66     0.2202     0.0064     0.1556     0.0660     0.2854     2.9167   105.6000     0.1798     0.4964
  332    6.620   1960.33     0.2235     0.0065     0.1524     0.0662     0.2887     2.9949   105.9200     0.1828     0.4878
  333    6.640   1960.98     0.2159     0.0066     0.1530     0.0664     0.2793     3.0732   106.2400     0.1730     0.4879
  334    6.660   1961.63     0.2135     0.0062     0.1551     0.0666     0.2785     2.9101   106.5600     0.1719     0.5122
  335    6.680   1962.27     0.2163     0.0060     0.1571     0.0668     0.2817     2.8121   106.8800     0.1748     0.5083
  336    6.700   1966.33     0.2133     0.0060     0.1567     0.0670     0.2799     2.7916   107.2000     0.1727     0.5302
  337    6.720   1986.65     0.2116     0.0060     0.1511     0.0672     0.2758     2.8061   107.5200     0.1683     0.5084
  338    6.740   2006.97     0.2098     0.0060     0.1454     0.0674     0.2717     2.8205   107.8400     0.1639     0.4865
  339    6.760   2027.29     0.2081     0.0059     0.1451     0.0676     0.2676     2.7686   108.1600     0.1594     0.4647
  340    6.780   2030.62     0.2110     0.0058     0.1528     0.0678     0.2746     2.7447   108.4800     0.1661     0.5045
  341    6.800   2032.61     0.2059     0.0057     0.1550     0.0680     0.2707     2.7488   108.8000     0.1619     0.5331
  342    6.820   2036.74     0.2040     0.0054     0.1569     0.0682     0.2696     2.6380   109.1200     0.1605     0.5489
  343    6.840   2040.87     0.2020     0.0051     0.1588     0.0684     0.2684     2.4841   109.4400     0.1590     0.5648
  344    6.860   2043.36     0.1927     0.0054     0.1631     0.0686     0.2611     2.7195   109.7600     0.1513     0.6224
  345    6.880   2044.33     0.1979     0.0053     0.1633     0.0688     0.2677     2.6869   110.0800     0.1576     0.6189
  346    6.900   2045.27     0.2049     0.0052     0.1630     0.0690     0.2719     2.5456   110.4000     0.1615     0.5601
  347    6.920   2046.22     0.2102     0.0056     0.1669     0.0692     0.2803     2.6682   110.7200     0.1696     0.5767
  348    6.940   2047.18     0.2199     0.0059     0.1609     0.0694     0.2883     2.7378   111.0400     0.1773     0.5273
  349    6.960   2048.11     0.2328     0.0061     0.1457     0.0696     0.2970     2.6321   111.3600     0.1857     0.4491
  350    6.980   2049.10     0.2496     0.0064     0.1289     0.0698     0.3052     2.6828   111.6800     0.1935     0.3238
  351    7.000   2050.07     0.2646     0.0073     0.1258     0.0700     0.3177     2.8319   112.0000     0.2057     0.2745
  352    7.020   2051.01     0.2753     0.0079     0.1323     0.0702     0.3298     2.8990   112.3200     0.2175     0.2735
  353    7.040   2051.97     0.2870     0.0080     0.1249     0.0704     0.3404     2.8112   112.6400     0.2278     0.2496
  354    7.060   2052.93     0.2972     0.0089     0.1154     0.0706     0.3465     3.0275   112.9600     0.2336     0.2011
  355    7.080   2053.89     0.2986     0.0086     0.1106     0.0708     0.3468     2.9001   113.2800     0.2335     0.1879
  356    7.100   2054.86     0.3044     0.0086     0.1108     0.0710     0.3511     2.8216   113.6000     0.2375     0.1700
  357    7.120   2055.79     0.3029     0.0083     0.0982     0.0712     0.3457     2.7214   113.9200     0.2318     0.1334
  358    7.140   2056.77     0.3126     0.0079     0.0982     0.0714     0.3530     2.5725   114.2400     0.2387     0.1038
  359    7.160   2057.74     0.3046     0.0077     0.1020     0.0716     0.3465     2.4756   114.5600     0.2320     0.1211
  360    7.180   2058.73     0.3047     0.0076     0.1098     0.0718     0.3485     2.4578   114.8800     0.2336     0.1392
  361    7.200   2059.70     0.3074     0.0073     0.1250     0.0720     0.3586     2.3752   115.2000     0.2434     0.2047
  362    7.220   2060.66     0.3011     0.0077     0.1141     0.0722     0.3508     2.5247   115.5200     0.2353     0.1959
  363    7.240   2061.63     0.3046     0.0075     0.1252     0.0724     0.3542     2.4624   115.8400     0.2383     0.1915
  364    7.260   2062.62     0.3081     0.0077     0.1378     0.0726     0.3651     2.4953   116.1600     0.2489     0.2534
  365    7.280   2063.55     0.3112     0.0076     0.1423     0.0728     0.3702     2.4457   116.4800     0.2538     0.2671
  366    7.300   2064.49     0.3132     0.0079     0.1398     0.0730     0.3728     2.5102   116.8000     0.2560     0.2692
  367    7.320   2065.43     0.3138     0.0077     0.1401     0.0732     0.3723     2.4434   117.1200     0.2552     0.2592
  368    7.340   2066.42     0.3108     0.0071     0.1408     0.0734     0.3701     2.2845   117.4400     0.2527     0.2686
  369    7.360   2067.43     0.3085     0.0067     0.1480     0.0736     0.3695     2.1677   117.7600     0.2517     0.2843
  370    7.380   2068.37     0.3057     0.0065     0.1492     0.0738     0.3695     2.1096   118.0800     0.2514     0.3104
  371    7.400   2069.35     0.3034     0.0068     0.1401     0.0740     0.3627     2.2336   118.4000     0.2443     0.2757
  372    7.420   2070.28     0.3001     0.0063     0.1487     0.0742     0.3613     2.1171   118.7200     0.2426     0.2947
  373    7.440   2071.24     0.2919     0.0060     0.1491     0.0744     0.3538     2.0561   119.0400     0.2348     0.3104
  374    7.460   2072.21     0.2864     0.0058     0.1613     0.0746     0.3522     2.0104   119.3600     0.2328     0.3522
  375    7.480   2073.19     0.2783     0.0058     0.1735     0.0748     0.3496     2.0604   119.6800     0.2299     0.4136
  376    7.500   2074.15     0.2714     0.0060     0.1827     0.0750     0.3469     2.1667   120.0000     0.2269     0.4623
  377    7.520   2075.09     0.2724     0.0060     0.1870     0.0752     0.3509     2.2236   120.3200     0.2306     0.4848
  378    7.540   2076.10     0.2740     0.0060     0.1833     0.0754     0.3508     2.2235   120.6400     0.2302     0.4674
  379    7.560   2077.05     0.2765     0.0065     0.1921     0.0756     0.3560     2.3529   120.9600     0.2351     0.4840
  380    7.580   2078.01     0.2781     0.0066     0.1987     0.0758     0.3603     2.3760   121.2800     0.2391     0.5023
  381    7.600   2078.98     0.2814     0.0066     0.1951     0.0760     0.3643     2.3556   121.6000     0.2427     0.5000
  382    7.620   2079.93     0.2850     0.0063     0.1921     0.0762     0.3664     2.2210   121.9200     0.2445     0.4812
  383    7.640   2080.89     0.2881     0.0066     0.1875     0.0764     0.3666     2.2953   122.2400     0.2444     0.4527
  384    7.660   2081.84     0.2859     0.0065     0.1859     0.0766     0.3644     2.2723   122.5600     0.2419     0.4566
  385    7.680   2082.81     0.2767     0.0070     0.1883     0.0768     0.3556     2.4979   122.8800     0.2327     0.4770
  386    7.700   2083.76     0.2832     0.0070     0.1854     0.0770     0.3609     2.5029   123.2000     0.2377     0.4539
  387    7.720   2084.75     0.2857     0.0070     0.1786     0.0772     0.3624     2.4360   123.5200     0.2389     0.4414
  388    7.740   2085.73     0.2862     0.0074     0.1675     0.0774     0.3569     2.5590   123.8400     0.2331     0.3899
  389    7.760   2086.70     0.2840     0.0071     0.1548     0.0776     0.3507     2.5022   124.1600     0.2266     0.3586
  390    7.780   2087.67     0.2784     0.0076     0.1548     0.0778     0.3423     2.7196   124.4800     0.2179     0.3414
  391    7.800   2088.61     0.2745     0.0074     0.1759     0.0780     0.3450     2.6812   124.8000     0.2202     0.4072
  392    7.820   2089.56     0.2728     0.0074     0.1889     0.0782     0.3510     2.7129   125.1200     0.2259     0.4787
  393    7.840   2090.56     0.2712     0.0070     0.1831     0.0784     0.3493     2.5750   125.4400     0.2239     0.4808
  394    7.860   2091.51     0.2771     0.0072     0.1705     0.0786     0.3508     2.6325   125.7600     0.2250     0.4301
  395    7.880   2092.46     0.2767     0.0071     0.1706     0.0788     0.3480     2.5644   126.0800     0.2219     0.4101
  396    7.900   2093.44     0.2706     0.0072     0.1833     0.0790     0.3458     2.6395   126.4000     0.2194     0.4559
  397    7.920   2094.37     0.2646     0.0065     0.1908     0.0792     0.3439     2.4344   126.7200     0.2172     0.5045
  398    7.940   2095.32     0.2632     0.0066     0.1996     0.0794     0.3461     2.5014   127.0400     0.2190     0.5384
  399    7.960   2096.30     0.2644     0.0066     0.2060     0.0796     0.3502     2.5167   127.3600     0.2229     0.5600
  400    7.980   2097.23     0.2636     0.0066     0.2109     0.0798     0.3517     2.5168   127.6800     0.2240     0.5807
  401    8.000   2098.21     0.2692     0.0067     0.2139     0.0800     0.3591     2.4814   128.0000     0.2311     0.5802
  402    8.020   2099.20     0.2750     0.0068     0.1983     0.0802     0.3608     2.4912   128.3200     0.2325     0.5338
  403    8.040   2100.14     0.2847     0.0068     0.1915     0.0804     0.3649     2.4033   128.6400     0.2363     0.4678
  404    8.060   2101.10     0.2828     0.0068     0.1904     0.0806     0.3633     2.3862   128.9600     0.2344     0.4741
  405    8.080   2102.04     0.2801     0.0068     0.1847     0.0808     0.3587     2.3769   129.2800     0.2294     0.4636
  406    8.100   2103.02     0.2736     0.0066     0.1894     0.0810     0.3528     2.4122   129.6000     0.2232     0.4814
  407    8.120   2103.99     0.2696     0.0068     0.1861     0.0812     0.3474     2.4961   129.9200     0.2175     0.4792
  408    8.140   2104.95     0.2681     0.0067     0.1967     0.0814     0.3510     2.5053   130.2400     0.2208     0.5257
  409    8.160   2105.91     0.2682     0.0067     0.2076     0.0816     0.3539     2.4733   130.5600     0.2233     0.5480
  410    8.180   2106.90     0.2717     0.0067     0.2009     0.0818     0.3580     2.4912   130.8800     0.2272     0.5445
  411    8.200   2107.84     0.2838     0.0063     0.1936     0.0820     0.3650     2.2297   131.2000     0.2338     0.4760
  412    8.220   2108.84     0.2888     0.0063     0.1825     0.0822     0.3664     2.2089   131.5200     0.2349     0.4371
  413    8.240   2109.79     0.2886     0.0065     0.1646     0.0824     0.3641     2.2836   131.8400     0.2323     0.4195
  414    8.260   2110.75     0.2898     0.0063     0.1871     0.0826     0.3630     2.1370   132.1600     0.2308     0.3970
  415    8.280   2111.75     0.2835     0.0060     0.1877     0.0828     0.3670     2.0824   132.4800     0.2346     0.4951
  416    8.300   2112.70     0.2830     0.0061     0.1682     0.0830     0.3552     2.1499   132.8000     0.2224     0.4000
  417    8.320   2113.64     0.2866     0.0054     0.1753     0.0832     0.3578     1.8743   133.1200     0.2247     0.3843
  418    8.340   2114.60     0.2812     0.0055     0.1869     0.0834     0.3594     1.9502   133.4400     0.2259     0.4544
  419    8.360   2115.55     0.2913     0.0052     0.1790     0.0836     0.3670     1.8128   133.7600     0.2332     0.4145
  420    8.380   2116.53     0.2894     0.0060     0.1711     0.0838     0.3627     2.0853   134.0800     0.2286     0.3970
  421    8.400   2117.50     0.2873     0.0061     0.1764     0.0840     0.3612     2.1193   134.4000     0.2268     0.4049
  422    8.420   2118.46     0.3021     0.0065     0.1813     0.0842     0.3775     2.1649   134.7200     0.2428     0.3929
  423    8.440   2119.42     0.2897     0.0066     0.1794     0.0844     0.3658     2.2430   135.0400     0.2307     0.4192
  424    8.460   2120.38     0.2943     0.0063     0.1709     0.0846     0.3679     2.1272   135.3600     0.2326     0.3906
  425    8.480   2121.32     0.2667     0.0060     0.1403     0.0848     0.3279     2.1998   135.6800     0.1922     0.3170
  426    8.500   2122.29     0.2628     0.0060     0.1879     0.0850     0.3357     2.2548   136.0000     0.1997     0.4435
  427    8.520   2123.26     0.2757     0.0056     0.2121     0.0852     0.3619     2.0628   136.3200     0.2255     0.5316
  428    8.540   2124.24     0.2867     0.0048     0.2042     0.0854     0.3749     1.6892   136.6400     0.2383     0.5237
  429    8.560   2125.22     0.2976     0.0048     0.1934     0.0856     0.3800     1.6405   136.9600     0.2431     0.4557
  430    8.580   2126.19     0.2979     0.0053     0.1883     0.0858     0.3769     1.7589   137.2800     0.2396     0.4270
  431    8.600   2127.15     0.2987     0.0053     0.1770     0.0860     0.3747     1.7835   137.6000     0.2371     0.4009
  432    8.620   2128.12     0.2896     0.0053     0.1711     0.0862     0.3605     1.8159   137.9200     0.2226     0.3710
  433    8.640   2129.08     0.2796     0.0056     0.1782     0.0864     0.3546     1.9762   138.2400     0.2163     0.4261
  434    8.660   2130.04     0.2676     0.0053     0.1692     0.0866     0.3413     1.9541   138.5600     0.2027     0.4381
  435    8.680   2130.98     0.2452     0.0051     0.1690     0.0868     0.3132     1.9975   138.8800     0.1743     0.4323
  436    8.700   2131.97     0.2226     0.0052     0.1906     0.0870     0.2991     2.2924   139.2000     0.1599     0.5955
  437    8.720   2132.94     0.2145     0.0056     0.1948     0.0872     0.2954     2.6444   139.5200     0.1559     0.6774
  438    8.740   2133.91     0.2351     0.0056     0.1766     0.0874     0.3152     2.4651   139.8400     0.1753     0.5895
  439    8.760   2134.89     0.2476     0.0053     0.1916     0.0876     0.3256     2.1683   140.1600     0.1855     0.5285
  440    8.780   2135.84     0.2494     0.0055     0.2003     0.0878     0.3340     2.2009   140.4800     0.1935     0.5870
  441    8.800   2136.81     0.2460     0.0054     0.1825     0.0880     0.3227     2.2073   140.8000     0.1819     0.5211
  442    8.820   2137.78     0.2363     0.0057     0.2010     0.0882     0.3183     2.3968   141.1200     0.1772     0.6037
  443    8.840   2138.73     0.2405     0.0060     0.2029     0.0884     0.3268     2.5752   141.4400     0.1854     0.6323
  444    8.860   2139.69     0.2469     0.0058     0.1861     0.0886     0.3258     2.3690   141.7600     0.1841     0.5400
  445    8.880   2140.64     0.2493     0.0061     0.1924     0.0888     0.3297     2.4341   142.0800     0.1876     0.5475
  446    8.900   2141.61     0.2420     0.0061     0.1927     0.0890     0.3229     2.5002   142.4000     0.1805     0.5740
  447    8.920   2158.20     0.2457     0.0061     0.1875     0.0892     0.3252     2.5255   142.7200     0.1825     0.5495
  448    8.940   2178.64     0.2528     0.0060     0.1822     0.0894     0.3301     2.5007   143.0400     0.1870     0.5066
  449    8.960   2186.38     0.2607     0.0061     0.1931     0.0896     0.3408     2.3720   143.3600     0.1975     0.5131
  450    8.980   2187.33     0.2777     0.0059     0.1995     0.0898     0.3625     2.1443   143.6800     0.2188     0.5126
  451    9.000   2188.33     0.2820     0.0058     0.1950     0.0900     0.3670     2.0476   144.0000     0.2230     0.5037
  452    9.020   2189.29     0.2676     0.0057     0.1932     0.0902     0.3481     2.0923   144.3200     0.2038     0.4985
  453    9.040   2190.29     0.2623     0.0061     0.2047     0.0904     0.3467     2.3154   144.6400     0.2020     0.5473
  454    9.060   2191.22     0.2625     0.0057     0.2138     0.0906     0.3515     2.1963   144.9600     0.2065     0.5875
  455    9.080   2192.22     0.2689     0.0059     0.2141     0.0908     0.3589     2.2032   145.2800     0.2136     0.5784
  456    9.100   2193.19     0.2763     0.0063     0.2175     0.0910     0.3676     2.2762   145.6000     0.2220     0.5699
  457    9.120   2194.10     0.2755     0.0060     0.2239     0.0912     0.3681     2.1732   145.9200     0.2222     0.5820
  458    9.140   2195.08     0.2657     0.0058     0.2289     0.0914     0.3609     2.1732   146.2400     0.2147     0.6300
  459    9.160   2196.06     0.2738     0.0062     0.2244     0.0916     0.3697     2.2918   146.5600     0.2232     0.6129
  460    9.180   2197.00     0.2666     0.0062     0.2324     0.0918     0.3627     2.2913   146.8800     0.2158     0.6340
  461    9.200   2198.01     0.2693     0.0063     0.2331     0.0920     0.3672     2.3629   147.2000     0.2200     0.6414
  462    9.220   2198.98     0.2721     0.0063     0.2350     0.0922     0.3708     2.3227   147.5200     0.2233     0.6394
  463    9.240   2199.90     0.2734     0.0069     0.2329     0.0924     0.3710     2.5232   147.8400     0.2231     0.6271
  464    9.260   2200.87     0.2751     0.0069     0.2336     0.0926     0.3729     2.4975   148.1600     0.2247     0.6244
  465    9.280   2201.81     0.2837     0.0066     0.2323     0.0928     0.3805     2.3411   148.4800     0.2321     0.5938
  466    9.300   2202.79     0.2910     0.0067     0.2409     0.0930     0.3917     2.3047   148.8000     0.2429     0.6044
  467    9.320   2203.76     0.2940     0.0069     0.2377     0.0932     0.3945     2.3635   149.1200     0.2454     0.5956
  468    9.340   2204.76     0.2967     0.0075     0.2358     0.0934     0.3953     2.5225   149.4400     0.2459     0.5753
  469    9.360   2205.70     0.3134     0.0082     0.2383     0.0936     0.4139     2.6571   149.7600     0.2642     0.5522
  470    9.380   2206.67     0.3146     0.0081     0.2339     0.0938     0.4133     2.5926   150.0800     0.2632     0.5369
  471    9.400   2207.63     0.3187     0.0086     0.2260     0.0940     0.4149     2.7595   150.4000     0.2645     0.5112
  472    9.420   2208.59     0.3402     0.0083     0.2098     0.0942     0.4310     2.5216   150.7200     0.2803     0.4358
  473    9.440   2209.53     0.3417     0.0062     0.2305     0.0944     0.4331     1.7891   151.0400     0.2821     0.4370
  474    9.460   2210.48     0.3326     0.0010     0.2450     0.0946     0.4343     0.2870   151.3600     0.2829     0.5215
  475    9.480   2211.44     0.3350     0.0000     0.2466     0.0948     0.4382    -0.0031   151.6800     0.2866     0.5267
  476    9.500   2212.42     0.3294    -0.0001     0.2568     0.0950     0.4360    -0.0199   152.0000     0.2840     0.5593
  477    9.520   2213.36     0.3170     0.0006     0.2797     0.0952     0.4317     0.1888   152.3200     0.2793     0.6366
  478    9.540   2214.32     0.4552     0.0046     0.2877     0.0954     0.5750     1.2505   152.6400     0.4224     0.4662
  479    9.560   2215.30     1.2752     0.0097     0.2225     0.0956     1.3888     1.0981   152.9600     1.2358     0.1430
  480    9.580   2217.14     2.3868     0.0164     0.1626     0.0958     2.4612     0.8459   153.2800     2.3079     0.0442
  481    9.600   2219.97     3.3528     0.0253     0.1207     0.0960     3.4096     1.3088   153.6000     3.2560     0.0228
  482    9.620   2222.81     4.3188     0.0294     0.0863     0.0962     4.3580     1.4938   153.9200     4.2041     0.0014
  483    9.640   2224.09     4.7369     0.0288     0.0931     0.0964     4.7747     0.6148   154.2400     4.6205    -0.0014
  484    9.660   2225.08     4.6716     0.0266     0.1024     0.0966     4.7139     0.5603   154.5600     4.5593     0.0009
  485    9.680   2226.03     4.3013     0.0246     0.1012     0.0968     4.3437     0.5540   154.8800     4.1888     0.0010
  486    9.700   2227.00     3.8605     0.0236     0.1020     0.0970     3.9042     0.5929   155.2000     3.7490     0.0019
  487    9.720   2227.97     3.5335     0.0245     0.1103     0.0972     3.5785     0.6786   155.5200     3.4229     0.0029
  488    9.740   2228.95     3.3320     0.0273     0.1197     0.0974     3.3813     0.8074   155.8400     3.2254     0.0062
  489    9.760   2229.92     3.3160     0.0301     0.1116     0.0976     3.3653     0.9120   156.1600     3.2091     0.0062
  490    9.780   2230.88     3.4321     0.0346     0.0936     0.0978     3.4727     1.0200   156.4800     3.3162    -0.0003
  491    9.800   2231.82     3.3357     0.0464     0.0972     0.0980     3.3754     1.3562   156.8000     3.2186    -0.0010
  492    9.820   2232.79     2.9481     0.0556     0.0852     0.0982     2.9843     1.8143   157.1200     2.8272    -0.0042
  493    9.840   2233.74     2.4829     0.0542     0.0997     0.0984     2.5199     2.1173   157.4400     2.3625    -0.0044
  494    9.860   2234.71     2.0124     0.0477     0.1271     0.0986     2.0622     2.2341   157.7600     1.9045     0.0106
  495    9.880   2235.71     1.7927     0.0410     0.1390     0.0988     1.8506     2.2503   158.0800     1.6925     0.0230
  496    9.900   2236.67     1.9097     0.0333     0.1349     0.0990     1.9672     1.8007   158.4000     1.8088     0.0209
  497    9.920   2237.64     2.5402     0.0277     0.1450     0.0992     2.5993     1.1678   158.7200     2.4406     0.0170
  498    9.940   2238.62     4.1651     0.0266     0.1002     0.0994     4.2249     0.6811   159.0400     4.0658     0.0108
  499    9.960   2239.62     6.1404     0.0265    -0.0115     0.0996     6.1434     0.4551   159.3600     5.9841    -0.0153
  500    9.980   2240.61     7.8564     0.0278    -0.0419     0.0998     7.8416     0.3658   159.6800     7.6819    -0.0175
  501   10.000   2241.62     9.2860     0.0361    -0.0541     0.1000     9.2650     0.3964   160.0000     9.1050    -0.0165
  502   10.020   2242.61    10.0881     0.0468    -0.0410     0.1002    10.0683     0.4665   160.3200     9.9080    -0.0149
  503   10.040   2243.61    10.1226     0.0581    -0.0308     0.1004    10.1088     0.5730   160.6400     9.9482    -0.0134
  504   10.060   2244.60     9.6169     0.0623    -0.0084     0.1006     9.6096     0.6426   160.9600     9.4486    -0.0125
  505   10.080   2245.60     8.7906     0.0601     0.0175     0.1008     8.7929     0.6771   161.2800     8.6316    -0.0110
  506   10.100   2246.58     7.9990     0.0547     0.0456     0.1010     8.0155     0.6793   161.6000     7.8539    -0.0079
  507   10.120   2247.55     7.7370     0.0405     0.0649     0.1012     7.7607     0.5249   161.9200     7.5987    -0.0059
  508   10.140   2248.57     8.3244     0.0309     0.0938     0.1014     8.3605     0.3762   162.2400     8.1983    -0.0019
  509   10.160   2249.56     9.9150     0.0250     0.0805     0.1016     9.9551     0.2706   162.5600     9.7926    -0.0006
  510   10.180   2250.57    11.9351     0.0226    -0.0246     0.1018    11.9448     0.1925   162.8800    11.7819    -0.0066
  511   10.200   2251.61    13.2366     0.0242    -0.1687     0.1020    13.1811     0.1854   163.2000    13.0179    -0.0179
  512   10.220   2252.61    13.9591     0.0283    -0.1957     0.1022    13.8722     0.2044   163.5200    13.7086    -0.0226
  513   10.240   2253.60    13.7618     0.0377    -0.1202     0.1024    13.7040     0.2722   163.8400    13.5402    -0.0177
  514   10.260   2254.58    13.2656     0.0445    -0.0115     0.1026    13.2421     0.3340   164.1600    13.0780    -0.0121
  515   10.280   2255.55    12.8517     0.0546     0.0659     0.1028    12.8693     0.4238   164.4800    12.7048    -0.0048
  516   10.300   2256.56    12.6175     0.0609     0.0935     0.1030    12.6575     0.4802   164.8000    12.4927    -0.0006
  517   10.320   2257.54    12.7923     0.0629     0.0927     0.1032    12.8327     0.4953   165.1200    12.6676    -0.0006
  518   10.340   2258.58    13.3805     0.0619     0.0940     0.1034    13.4188     0.4656   165.4400    13.2533    -0.0009
  519   10.360   2259.58    14.3007     0.0610     0.0986     0.1036    14.3411     0.4309   165.7600    14.1754    -0.0005
  520   10.380   2260.61    15.1796     0.0601     0.0815     0.1038    15.2178     0.3986   166.0800    15.0517    -0.0009
  521   10.400   2261.62    15.7777     0.0585     0.0178     0.1040    15.7955     0.3754   166.4000    15.6291    -0.0039
  522   10.420   2262.61    16.3117     0.0558    -0.0067     0.1042    16.3106     0.3432   166.7200    16.1439    -0.0066
  523   10.440   2263.59    16.5613     0.0595     0.0089     0.1044    16.5604     0.3604   167.0400    16.3934    -0.0065
  524   10.460   2264.57    16.8201     0.0649     0.0129     0.1046    16.8268     0.3865   167.3600    16.6594    -0.0053
  525   10.480   2265.57    16.8369     0.0678     0.0215     0.1048    16.8478     0.4020   167.6800    16.6801    -0.0047
  526   10.500   2266.53    16.4579     0.0699    -0.0082     0.1050    16.4592     0.4226   168.0000    16.2912    -0.0063
  527   10.520   2267.52    15.9580     0.0731     0.0130     0.1052    15.9594     0.4561   168.3200    15.7911    -0.0064
  528   10.540   2268.52    15.4620     0.0780     0.0546     0.1054    15.4772     0.5035   168.6400    15.3085    -0.0045
  529   10.560   2269.52    15.1651     0.0851     0.0857     0.1056    15.1944     0.5599   168.9600    15.0254    -0.0024
  530   10.580   2270.50    14.9937     0.0894     0.1009     0.1058    15.0365     0.5953   169.2800    14.8672    -0.0003
  531   10.600   2271.52    14.8838     0.0909     0.0942     0.1060    14.9233     0.6102   169.6000    14.7537    -0.0008
  532   10.620   2272.50    14.8547     0.0872     0.1026     0.1062    14.8955     0.5870   169.9200    14.7256    -0.0006
  533   10.640   2273.53    14.8450     0.0810     0.1023     0.1064    14.8882     0.5458   170.2400    14.7180    -0.0002
  534   10.660   2274.50    14.8894     0.0777     0.0976     0.1066    14.9316     0.5227   170.5600    14.7610    -0.0004
  535   10.680   2275.49    15.1431     0.0739     0.0871     0.1068    15.1814     0.4897   170.8800    15.0105    -0.0010
  536   10.700   2276.55    15.4584     0.0705     0.0802     0.1070    15.4951     0.4578   171.2000    15.3239    -0.0013
  537   10.720   2277.52    15.7898     0.0667     0.0744     0.1072    15.8211     0.4252   171.5200    15.6496    -0.0021
  538   10.740   2278.52    15.9216     0.0644     0.0776     0.1074    15.9550     0.4049   171.8400    15.7832    -0.0018
  539   10.760   2279.50    15.9042     0.0626     0.0900     0.1076    15.9414     0.3932   172.1600    15.7692    -0.0012
  540   10.780   2280.45    15.7018     0.0592     0.0970     0.1078    15.7413     0.3747   172.4800    15.5688    -0.0009
  541   10.800   2281.41    15.2764     0.0569     0.0982     0.1080    15.3167     0.3681   172.8000    15.1439    -0.0008
  542   10.820   2282.33    14.5985     0.0586     0.1079     0.1082    14.6430     0.4027   173.1200    14.4698    -0.0002
  543   10.840   2283.24    13.8390     0.0608     0.0991     0.1084    13.8837     0.4424   173.4400    13.7102    -0.0001
  544   10.860   2284.24    12.8009     0.0616     0.1028     0.1086    12.8448     0.4614   173.7600    12.6710    -0.0003
  545   10.880   2285.19    11.8117     0.0614     0.1005     0.1088    11.8532     0.5050   174.0800    11.6791    -0.0009
  546   10.900   2286.16    11.2777     0.0633     0.1027     0.1090    11.3206     0.5524   174.4000    11.1462    -0.0006
  547   10.920   2289.86    11.4510     0.0605     0.1102     0.1092    11.4970     0.5313   174.7200    11.3222     0.0000
  548   10.940   2309.63    12.1357     0.0524     0.1127     0.1094    12.1827     0.4601   175.0400    12.0076     0.0002
  549   10.960   2329.29    12.8280     0.0485     0.1097     0.1096    12.8760     0.3870   175.3600    12.7007     0.0004
  550   10.980   2330.37    14.6207     0.0527     0.0697     0.1098    14.6592     0.3703   175.6800    14.4835    -0.0012
  551   11.000   2331.37    15.9752     0.0630    -0.0207     0.1100    15.9850     0.4034   176.0000    15.8090    -0.0055
  552   11.020   2332.42    17.2616     0.0765     0.0025     0.1102    17.2601     0.4569   176.3200    17.0838    -0.0067
  553   11.040   2333.38    18.2516     0.0954     0.0549     0.1104    18.2656     0.5349   176.6400    18.0890    -0.0043
  554   11.060   2334.31    19.2968     0.1143     0.0767     0.1106    19.3303     0.6113   176.9600    19.1534    -0.0016
  555   11.080   2335.27    20.4375     0.1215     0.0883     0.1108    20.4708     0.6109   177.2800    20.2935    -0.0016
  556   11.100   2336.19    21.3715     0.1263     0.0943     0.1110    21.4110     0.6039   177.6000    21.2334    -0.0008
  557   11.120   2337.10    22.0112     0.1306     0.1023     0.1112    22.0540     0.6018   177.9200    21.8761    -0.0004
  558   11.140   2338.04    22.6256     0.1341     0.1055     0.1114    22.6676     0.6014   178.2400    22.4894    -0.0005
  559   11.160   2338.94    23.3422     0.1335     0.1113     0.1116    23.3868     0.5806   178.5600    23.2083    -0.0002
  560   11.180   2339.91    23.9833     0.1363     0.1125     0.1118    24.0279     0.5747   178.8800    23.8490    -0.0002
  561   11.200   2340.83    24.4135     0.1429     0.1142     0.1120    24.4626     0.5892   179.2000    24.2834     0.0002
  562   11.220   2341.78    24.9803     0.1548     0.1022     0.1122    25.0252     0.6283   179.5200    24.8457    -0.0002
  563   11.240   2342.70    25.5846     0.1667     0.1072     0.1124    25.6289     0.6598   179.8400    25.4490    -0.0003
  564   11.260   2343.66    26.1257     0.1771     0.1118     0.1126    26.1721     0.6863   180.1600    25.9919    -0.0001
  565   11.280   2344.58    26.6852     0.1874     0.1054     0.1128    26.7297     0.7031   180.4800    26.5492    -0.0003
  566   11.300   2345.52    27.0540     0.1972     0.1085     0.1130    27.1009     0.7324   180.8000    26.9201     0.0000
  567   11.320   2346.41    27.2100     0.2069     0.1072     0.1132    27.2545     0.7605   181.1200    27.0734    -0.0003
  568   11.340   2347.35    27.1427     0.2105     0.1125     0.1134    27.1902     0.7733   181.4400    27.0088     0.0000
  569   11.360   2348.30    26.5834     0.2097     0.1034     0.1136    26.6283     0.7872   181.7600    26.4465    -0.0003
  570   11.380   2349.20    25.9310     0.2067     0.1104     0.1138    25.9779     0.7959   182.0800    25.7958    -0.0001
  571   11.400   2350.12    25.4048     0.2033     0.1037     0.1140    25.4497     0.7990   182.4000    25.2673    -0.0003
  572   11.420   2351.06    25.0800     0.1979     0.0933     0.1142    25.1189     0.7884   182.7200    24.9362    -0.0009
  573   11.440   2351.99    24.8750     0.1889     0.1048     0.1144    24.9189     0.7591   183.0400    24.7359    -0.0004
  574   11.460   2352.91    24.7280     0.1809     0.1107     0.1146    24.7738     0.7309   183.3600    24.5905    -0.0002
  575   11.480   2353.80    24.2911     0.1759     0.1150     0.1148    24.3388     0.7143   183.6800    24.1551     0.0000
  576   11.500   2354.70    23.4612     0.1774     0.0912     0.1150    23.5071     0.7425   184.0000    23.3231    -0.0002
  577   11.520   2355.62    22.8395     0.1794     0.0290     0.1152    22.8597     0.7760   184.3200    22.6754    -0.0030
  578   11.540   2356.57    23.0671     0.1793     0.0316     0.1154    23.0759     0.7857   184.6400    22.8912    -0.0041
  579   11.560   2357.50    23.9875     0.1890     0.0851     0.1156    24.0133     0.8070   184.9600    23.8283    -0.0023
  580   11.580   2358.44    25.2151     0.1995     0.0918     0.1158    25.2531     0.8117   185.2800    25.0678    -0.0010
  581   11.600   2359.36    26.3402     0.2120     0.1137     0.1160    26.3946     0.8199   185.6000    26.2090     0.0005
  582   11.620   2360.26    26.7630     0.2187    -0.0095     0.1162    26.7774     0.8206   185.9200    26.5915    -0.0031
  583   11.640   2361.20    26.6854     0.2234     0.0053     0.1164    26.6782     0.8342   186.2400    26.4919    -0.0050
  584   11.660   2362.14    26.4846     0.2172     0.0430     0.1166    26.4980     0.8170   186.5600    26.3114    -0.0032
  585   11.680   2363.06    26.4990     0.2165     0.0951     0.1168    26.5312     0.8192   186.8800    26.3443    -0.0015
  586   11.700   2364.03    26.8204     0.2145     0.1112     0.1170    26.8682     0.8058   187.2000    26.6810    -0.0001
  587   11.720   2364.93    27.5596     0.2123     0.1116     0.1172    27.6070     0.7805   187.5200    27.4195    -0.0002
  588   11.740   2365.88    28.3556     0.2121     0.1057     0.1174    28.4028     0.7567   187.8400    28.2150    -0.0002
  589   11.760   2366.81    29.1213     0.2192     0.1093     0.1176    29.1661     0.7598   188.1600    28.9779    -0.0004
  590   11.780   2367.76    29.9902     0.2226     0.1048     0.1178    30.0336     0.7509   188.4800    29.8451    -0.0005
  591   11.800   2368.70    30.6891     0.2182     0.1052     0.1180    30.7326     0.7167   188.8000    30.5438    -0.0005
  592   11.820   2369.65    31.1643     0.2218     0.0919     0.1182    31.2052     0.7160   189.1200    31.0161    -0.0007
  593   11.840   2370.60    31.5819     0.2246     0.1224     0.1184    31.6267     0.7152   189.4400    31.4372    -0.0004
  594   11.860   2371.57    32.1223     0.2285     0.1199     0.1186    32.1750     0.7168   189.7600    31.9853     0.0002
  595   11.880   2372.51    32.6988     0.2358     0.0886     0.1188    32.7434     0.7279   190.0800    32.5533    -0.0004
  596   11.900   2373.45    33.1140     0.2304     0.1277     0.1190    33.1573     0.6994   190.4000    32.9669    -0.0005
  597   11.920   2374.38    33.2443     0.2197     0.0999     0.1192    33.2890     0.6616   190.7200    33.0983    -0.0004
  598   11.940   2375.31    33.1535     0.2196     0.1065     0.1194    33.1990     0.6610   191.0400    33.0080    -0.0003
  599   11.960   2376.27    32.8147     0.2219     0.1051     0.1196    32.8586     0.6728   191.3600    32.6672    -0.0005
  600   11.980   2377.17    32.3233     0.2182     0.0995     0.1198    32.3642     0.6697   191.6800    32.1726    -0.0007
  601   12.000   2378.13    31.7245     0.2142     0.1001     0.1200    31.7675     0.6702   192.0000    31.5755    -0.0006
  602   12.020   2379.08    31.4515     0.2102     0.1218     0.1202    31.4988     0.6671   192.3200    31.3065    -0.0002
  603   12.040   2380.02    31.4102     0.2089     0.1247     0.1204    31.4615     0.6660   192.6400    31.2689     0.0001
  604   12.060   2380.97    31.7315     0.2083     0.1093     0.1206    31.7781     0.6592   192.9600    31.5852    -0.0003
  605   12.080   2381.90    32.3695     0.2069     0.1085     0.1208    32.4141     0.6436   193.2800    32.2208    -0.0005
  606   12.100   2382.87    33.3953     0.2047     0.1230     0.1210    33.4488     0.6193   193.6000    33.2552     0.0002
  607   12.120   2383.87    34.8339     0.2033     0.1170     0.1212    34.8840     0.5922   193.9200    34.6901    -0.0001
  608   12.140   2384.82    36.2525     0.2064     0.1028     0.1214    36.2986     0.5805   194.2400    36.1044    -0.0003
  609   12.160   2385.77    37.4565     0.2100     0.1121     0.1216    37.5073     0.5711   194.5600    37.3128     0.0000
  610   12.180   2386.76    38.5203     0.2136     0.1130     0.1218    38.5642     0.5616   194.8800    38.3693    -0.0005
  611   12.200   2387.69    39.1904     0.2105     0.1142     0.1220    39.2387     0.5377   195.2000    39.0435    -0.0002
  612   12.220   2388.68    39.3906     0.2126     0.1181     0.1222    39.4382     0.5399   195.5200    39.2426    -0.0002
  613   12.240   2390.22    39.0857     0.2153     0.1299     0.1224    39.1392     0.5481   195.8400    38.9434     0.0001
  614   12.260   2392.89    38.4961     0.2192     0.1374     0.1226    38.5527     0.5579   196.1600    38.3565     0.0003
  615   12.280   2395.56    37.9064     0.2219     0.1449     0.1228    37.9662     0.5648   196.4800    37.7697     0.0005
  616   12.300   2397.31    37.4853     0.2193     0.1200     0.1230    37.5341     0.5832   196.8000    37.3373    -0.0002
  617   12.320   2398.23    37.4683     0.2190     0.1233     0.1232    37.5229     0.5842   197.1200    37.3258     0.0002
  618   12.340   2399.21    37.6004     0.2225     0.1264     0.1234    37.6565     0.5926   197.4400    37.4591     0.0003
  619   12.360   2400.18    37.6652     0.2283     0.1416     0.1236    37.7254     0.6054   197.7600    37.5277     0.0005
  620   12.380   2401.10    37.3297     0.2251     0.1114     0.1238    37.3799     0.5989   198.0800    37.1818    -0.0001
  621   12.400   2402.03    36.9633     0.2181     0.1147     0.1240    37.0096     0.5879   198.4000    36.8112    -0.0004
  622   12.420   2403.00    36.5408     0.2126     0.1187     0.1242    36.5910     0.5788   198.7200    36.3922    -0.0001
  623   12.440   2403.96    36.0642     0.2116     0.1271     0.1244    36.1087     0.5834   199.0400    35.9097    -0.0005
  624   12.460   2404.86    35.7927     0.2113     0.1176     0.1246    35.8368     0.5888   199.3600    35.6374    -0.0006
  625   12.480   2405.83    35.6136     0.2091     0.1323     0.1248    35.6674     0.5856   199.6800    35.4677     0.0001
  626   12.500   2406.77    35.3783     0.2090     0.1235     0.1250    35.4359     0.5883   200.0000    35.2359     0.0004
  627   12.520   2407.72    35.0766     0.2177     0.1271     0.1252    35.1277     0.6186   200.3200    34.9273    -0.0001
  628   12.540   2408.67    34.9345     0.2189     0.1224     0.1254    34.9869     0.6268   200.6400    34.7862     0.0000
  629   12.560   2409.62    35.0518     0.2232     0.1313     0.1256    35.1067     0.6393   200.9600    34.9057     0.0001
  630   12.580   2410.57    35.7011     0.2227     0.1159     0.1258    35.7511     0.6302   201.2800    35.5498    -0.0002
  631   12.600   2411.50    36.2646     0.2250     0.1350     0.1260    36.3153     0.6242   201.6000    36.1137    -0.0001
  632   12.620   2412.46    36.0572     0.2291     0.1445     0.1262    36.1174     0.6346   201.9200    35.9155     0.0005
  633   12.640   2413.40    35.1603     0.2290     0.1066     0.1264    35.2059     0.6499   202.2400    35.0036    -0.0005
  634   12.660   2414.30    33.5834     0.2188     0.0705     0.1266    33.6119     0.6483   202.5600    33.4093    -0.0018
  635   12.680   2415.24    31.7562     0.2042     0.0827     0.1268    31.7904     0.6406   202.8800    31.5875    -0.0014
  636   12.700   2416.15    30.0578     0.2060     0.1197     0.1270    30.1058     0.6820   203.2000    29.9026    -0.0004
  637   12.720   2417.05    28.8790     0.2133     0.1250     0.1272    28.9286     0.7373   203.5200    28.7251    -0.0003
  638   12.740   2417.93    27.8975     0.2285     0.1175     0.1274    27.9457     0.8171   203.8400    27.7419    -0.0005
  639   12.760   2418.89    27.0857     0.2353     0.1121     0.1276    27.1464     0.8647   204.1600    26.9423     0.0006
  640   12.780   2419.79    26.3397     0.2391     0.1344     0.1278    26.4014     0.9052   204.4800    26.1969     0.0007
  641   12.800   2420.73    25.4678     0.2395     0.1219     0.1280    25.5265     0.9362   204.8000    25.3217     0.0005
  642   12.820   2421.64    24.4755     0.2364     0.1270     0.1282    24.5284     0.9598   205.1200    24.3233    -0.0001
  643   12.840   2422.53    23.6091     0.2332     0.1355     0.1284    23.6605     0.9834   205.4400    23.4551    -0.0003
  644   12.860   2423.44    22.7751     0.2320     0.1118     0.1286    22.8237     1.0165   205.7600    22.6180    -0.0006
  645   12.880   2424.37    21.9712     0.2277     0.1266     0.1288    22.0187     1.0348   206.0800    21.8126    -0.0007
  646   12.900   2425.24    21.4650     0.2266     0.1174     0.1290    21.5153     1.0464   206.4000    21.3089    -0.0004
  647   12.920   2438.74    21.1924     0.2227     0.1166     0.1292    21.2415     1.0388   206.7200    21.0347    -0.0006
  648   12.940   2453.46    20.9287     0.2160     0.1158     0.1294    20.9775     1.0079   207.0400    20.7704    -0.0006
  649   12.960   2465.95    20.7680     0.2188     0.1256     0.1296    20.8178     1.0323   207.3600    20.6105    -0.0005
  650   12.980   2466.88    21.0694     0.2271     0.1339     0.1298    21.1224     1.0837   207.6800    20.9147    -0.0002
  651   13.000   2467.83    21.5096     0.2283     0.1334     0.1300    21.5642     1.0759   208.0000    21.3562     0.0000
  652   13.020   2468.80    22.3860     0.2199     0.1290     0.1302    22.4400     0.9884   208.3200    22.2316    -0.0001
  653   13.040   2469.71    23.5256     0.2073     0.1309     0.1304    23.5790     0.8862   208.6400    23.3704    -0.0001
  654   13.060   2470.63    24.2322     0.1980     0.1313     0.1306    24.2886     0.8189   208.9600    24.0796     0.0002
  655   13.080   2471.56    23.7327     0.1818     0.1084     0.1308    23.7819     0.7587   209.2800    23.5726    -0.0006
  656   13.100   2472.43    22.5620     0.1483     0.0794     0.1310    22.5998     0.6508   209.6000    22.3902    -0.0018
  657   13.120   2473.34    21.4584     0.1143     0.0779     0.1312    21.4913     0.5261   209.9200    21.2814    -0.0025
  658   13.140   2474.25    20.1444     0.0939     0.0804     0.1314    20.1788     0.4591   210.2400    19.9686    -0.0025
  659   13.160   2475.12    18.7538     0.0853     0.0739     0.1316    18.7862     0.4500   210.5600    18.5756    -0.0029
  660   13.180   2476.01    17.2797     0.0747     0.0724     0.1318    17.3084     0.4282   210.8800    17.0975    -0.0037
  661   13.200   2476.89    16.3051     0.0597     0.0811     0.1320    16.3352     0.3639   211.2000    16.1240    -0.0037
  662   13.220   2477.79    15.4481     0.0511     0.1245     0.1322    15.4928     0.3211   211.5200    15.2813    -0.0017
  663   13.240   2478.71    14.8098     0.0531     0.1281     0.1324    14.8645     0.3526   211.8400    14.6526    -0.0001
  664   13.260   2479.63    14.9868     0.0678     0.1282     0.1326    15.0423     0.4593   212.1600    14.8302     0.0000
  665   13.280   2480.55    16.1461     0.0756     0.1118     0.1328    16.1933     0.4890   212.4800    15.9808    -0.0013
  666   13.300   2481.45    18.0247     0.0845     0.1451     0.1330    18.0788     0.4955   212.8000    17.8660    -0.0003
  667   13.320   2482.42    20.0505     0.1009     0.1371     0.1332    20.1049     0.5295   213.1200    19.8918    -0.0002
  668   13.340   2483.39    21.5638     0.1134     0.1225     0.1334    21.6220     0.5452   213.4400    21.4085     0.0003
  669   13.360   2484.26    22.9675     0.1216     0.1132     0.1336    23.0166     0.5454   213.7600    22.8028    -0.0007
  670   13.380   2485.24    24.2317     0.1222     0.1122     0.1338    24.2783     0.5155   214.0800    24.0642    -0.0010
  671   13.400   2486.17    25.3748     0.1247     0.1102     0.1340    25.4232     0.5026   214.4000    25.2088    -0.0007
  672   13.420   2487.09    26.5456     0.1301     0.1055     0.1342    26.5889     0.5011   214.7200    26.3741    -0.0012
  673   13.440   2488.03    27.7486     0.1322     0.1097     0.1344    27.7938     0.4846   215.0400    27.5787    -0.0010
  674   13.460   2488.98    28.5281     0.1322     0.1349     0.1346    28.5822     0.4680   215.3600    28.3669    -0.0002
  675   13.480   2489.89    28.7439     0.1361     0.1381     0.1348    28.8006     0.4746   215.6800    28.5849     0.0000
  676   13.500   2490.84    28.8345     0.1387     0.1425     0.1350    28.8919     0.4816   216.0000    28.6759     0.0001
  677   13.520   2491.80    29.0502     0.1423     0.1361     0.1352    29.1082     0.4917   216.3200    28.8919     0.0001
  678   13.540   2492.77    29.4903     0.1453     0.1357     0.1354    29.5464     0.4958   216.6400    29.3297    -0.0001
  679   13.560   2493.68    29.9860     0.1472     0.1406     0.1356    30.0456     0.4947   216.9600    29.8286     0.0002
  680   13.580   2494.62    30.5537     0.1508     0.1369     0.1358    30.6122     0.4966   217.2800    30.3950     0.0001
  681   13.600   2495.58    31.1537     0.1529     0.1384     0.1360    31.2103     0.4954   217.6000    30.9927     0.0000
  682   13.620   2496.54    31.9091     0.1530     0.1371     0.1362    31.9669     0.4839   217.9200    31.7490     0.0000
  683   13.640   2497.49    32.3897     0.1531     0.1420     0.1364    32.4489     0.4747   218.2400    32.2307     0.0001
  684   13.660   2498.44    32.6439     0.1612     0.1391     0.1366    32.7025     0.4952   218.5600    32.4839     0.0001
  685   13.680   2499.35    32.8725     0.1735     0.1420     0.1368    32.9322     0.5292   218.8800    32.7133     0.0002
  686   13.700   2500.32    33.4780     0.1796     0.1391     0.1370    33.5363     0.5408   219.2000    33.3171     0.0001
  687   13.720   2501.27    34.5033     0.1766     0.1401     0.1372    34.5626     0.5190   219.5200    34.3431     0.0001
  688   13.740   2502.28    35.4490     0.1742     0.1444     0.1374    35.5081     0.4963   219.8400    35.2882     0.0001
  689   13.760   2503.17    35.1160     0.1811     0.1419     0.1376    35.1768     0.5114   220.1600    34.9567     0.0002
  690   13.780   2504.14    34.3464     0.1771     0.1184     0.1378    34.3994     0.5109   220.4800    34.1789    -0.0003
  691   13.800   2505.08    33.8235     0.1586     0.0806     0.1380    33.8631     0.4656   220.8000    33.6423    -0.0013
  692   13.820   2506.02    33.2719     0.1413     0.1047     0.1382    33.3117     0.4218   221.1200    33.0906    -0.0013
  693   13.840   2506.93    32.9576     0.1457     0.1063     0.1384    33.0066     0.4408   221.4400    32.7852    -0.0007
  694   13.860   2507.88    33.3635     0.1589     0.1356     0.1386    33.4227     0.4797   221.7600    33.2010     0.0001
  695   13.880   2508.86    34.3682     0.1673     0.1084     0.1388    34.4178     0.4933   222.0800    34.1957    -0.0006
  696   13.900   2509.77    35.0971     0.1665     0.1161     0.1390    35.1431     0.4770   222.4000    34.9207    -0.0008
  697   13.920   2510.74    35.3336     0.1544     0.1229     0.1392    35.3865     0.4400   222.7200    35.1638    -0.0004
  698   13.940   2511.67    35.0545     0.1428     0.1277     0.1394    35.1074     0.4081   223.0400    34.8843    -0.0004
  699   13.960   2512.62    35.0932     0.1313     0.1207     0.1396    35.1448     0.3761   223.3600    34.9214    -0.0005
  700   13.980   2513.58    36.6061     0.1286     0.1417     0.1398    36.6619     0.3582   223.6800    36.4382    -0.0002
  701   14.000   2514.57    39.1257     0.1265     0.1292     0.1400    39.1833     0.3314   224.0000    38.9593    -0.0001
  702   14.020   2515.95    41.5888     0.1323     0.1091     0.1402    41.6332     0.3338   224.3200    41.4089    -0.0008
  703   14.040   2518.14    43.4242     0.1389     0.1184     0.1404    43.4725     0.3395   224.6400    43.2479    -0.0006
  704   14.060   2520.32    45.2595                0.1277     0.1406    45.3118              224.9600    45.0868    -0.0004
  705   14.080   2521.82    46.6790                0.1422     0.1408    46.7389              225.2800    46.5136     0.0000
  706   14.100   2522.84    46.9802                0.1326     0.1410    47.0386              225.6000    46.8130     0.0000
  707   14.120   2531.37    46.7997                0.1250     0.1412    46.8531              225.9200    46.6272    -0.0003
  708   14.140   2547.14    45.9475                0.1191     0.1414    45.9984              226.2400    45.7722    -0.0004
  709   14.150   2554.75    45.5363                           0.1415    45.5860              226.3944    45.3597    -0.0005
 
 
