

 Program UNIPLOT                         version 05.36.02
 _______________
 (c) Fugro Netherlands Marine, Nootdorp, The Netherlands


 ASCII representation of data plotted on a graph.

 This ASCII file presents data interpolated to values per fixed depth interval.
 The data are corrected for the depth-offset differences between the various 
 transducers in the penetrometer.

 The records at the start of penetration may include no values or anomalous
 values where a depth offset implies incomplete penetration of a particular
 sensor into the ground.

 The records at the end of penetration may include no values for data channels
 where the transducer did not reach this depth.

 The reference level for test values is (1) the ground surface for onshore tests and (2) the seafloor for nearshore and offshore tests.

 UNICAS data file          : CPT-2022.001                            
 Output using command file : PlotASCII_qe.cmd

 ASCII file created at : date          :22-Mar-2022
                         time          :10:55:45
 Project number                        :20024805
 Date of testing                       :21-Mar-2022
 Location                              :Hong Kong Offshore Wind Farm Project
 Test name                             :CPT-2022
 Penetrometer                          :F7.5CKE2HAW2/B/3342
 Serial no                             :1701-3342

 Table description:
 Column ID                             :Parameter name
 ___________________________________________________________________________________
 Rec                                   :Record ID, Record ID [-]
 Depth                                 :Depth, Depth [m]
 Time                                  :Time, Time [s]
 Cone                                  :Cone Resistance, Cone Resistance [MPa]
 Friction                              :Sleeve Friction, Sleeve Friction [MPa]
 Pore 2                                :Porewater Pressure, Porewater Pressure at Shoulder [MPa]
 HydroPress                            :Hydrostatic Pressure, Hydrostatic Pressure [MPa]
 qt                                    :Total Cone Resistance, Total Cone Resistance [MPa]
 Fric_ratio                            :Friction Ratio, Friction Ratio [%]
 SigmaVert                             :Vertical stress, Vertical stress [kPa] as specified in ground model
 Qnet                                  :Net Cone Resistance, Net Cone Resistance [MPa], unit weight as specified in ground model
 Bq                                    :Porewater Pressure Ratio, Porewater Pressure Ratio [-], unit weight as specified in ground model
 qe                                    :Effective Cone Resistance, Effective Cone Resistance [MPa]


 Data table:
  Rec    Depth      Time       Cone   Friction     Pore 2 HydroPress         qt Fric_ratio  SigmaVert       Qnet         Bq         qe
   No        m         s        MPa        MPa        MPa        MPa        MPa          %        kPa        MPa          -        MPa
    1    0.000   2100.13     0.0000                           0.0000     0.0000                0.0000     0.0000                0.0000
    2    0.020   2101.13     0.0017                0.0005     0.0002     0.0018                0.3200     0.0015     0.0722     0.0015
    3    0.040   2102.18     0.0153                0.0009     0.0004     0.0156                0.6400     0.0150     0.0247     0.0149
    4    0.060   2105.85     0.0366     0.0004     0.0013     0.0006     0.0370     2.9174     0.9600     0.0361     0.0185     0.0359
    5    0.080   2109.52     0.0578     0.0005     0.0017     0.0008     0.0584     3.1622     1.2800     0.0572     0.0123     0.0569
    6    0.100   2110.64     0.0643     0.0014     0.0020     0.0010     0.0651     2.1264     1.6000     0.0635     0.0153     0.0632
    7    0.120   2111.62     0.0622     0.0021     0.0017     0.0012     0.0630     3.3273     1.9200     0.0611     0.0095     0.0612
    8    0.140   2112.63     0.1110     0.0015     0.0024     0.0014     0.1117     2.0996     2.2400     0.1094     0.0026     0.1100
    9    0.160   2113.66     0.1775     0.0049    -0.0022     0.0016     0.1789     3.4167     2.5600     0.1763     0.0096     0.1756
   10    0.180   2114.76     0.2505     0.0047    -0.0164     0.0018     0.2452     1.8916     2.8800     0.2423    -0.0597     0.2579
   11    0.200   2115.74     0.2366     0.0051    -0.0139     0.0020     0.2323     2.1683     3.2000     0.2291    -0.0538     0.2426
   12    0.220   2116.74     0.2753     0.0046    -0.0147     0.0022     0.2686     1.6766     3.5200     0.2651    -0.0690     0.2846
   13    0.240   2117.74     0.2094     0.0041    -0.0193     0.0024     0.2030     1.5268     3.8400     0.1992    -0.0908     0.2182
   14    0.260   2118.75     0.0982     0.0042    -0.0082     0.0026     0.0947     2.8135     4.1600     0.0905    -0.1213     0.1031
   15    0.280   2119.79     0.0832     0.0039    -0.0084     0.0028     0.0794     4.5168     4.4800     0.0749    -0.1592     0.0885
   16    0.300   2120.83     0.0717     0.0022    -0.0065     0.0030     0.0689     3.0371     4.8000     0.0641    -0.1494     0.0755
   17    0.320   2121.83     0.0678     0.0020    -0.0068     0.0032     0.0646     2.9009     5.1200     0.0595    -0.1802     0.0722
   18    0.340   2122.82     0.0583     0.0021    -0.0045     0.0034     0.0564     3.3404     5.4400     0.0510    -0.1574     0.0610
   19    0.360   2123.86     0.0500     0.0022    -0.0006     0.0036     0.0492     4.4228     5.7600     0.0434    -0.1288     0.0512
   20    0.380   2124.86     0.0419     0.0020    -0.0001     0.0038     0.0419     4.6419     6.0800     0.0358    -0.1064     0.0419
   21    0.400   2125.89     0.0358     0.0033     0.0053     0.0040     0.0370     9.2580     6.4000     0.0306    -0.0371     0.0341
   22    0.420   2126.90     0.0340     0.0027     0.0100     0.0042     0.0376     7.8329     6.7200     0.0308     0.1356     0.0292
   23    0.440   2127.93     0.0556     0.0024     0.0127     0.0044     0.0606     4.6225     7.0400     0.0535     0.1469     0.0487
   24    0.460   2128.94     0.1432     0.0018     0.0135     0.0046     0.1490     1.4254     7.3600     0.1417     0.0699     0.1352
   25    0.480   2129.95     0.3034     0.0012     0.0037     0.0048     0.3069     0.3680     7.6800     0.2992     0.0130     0.2985
   26    0.500   2130.94     0.4222     0.0020    -0.0077     0.0050     0.4196     0.5012     8.0000     0.4116    -0.0269     0.4258
   27    0.520   2131.96     0.5823     0.0043    -0.0017     0.0052     0.5809     0.7518     8.3200     0.5726    -0.0152     0.5843
   28    0.540   2132.99     0.7103     0.0033     0.0010     0.0054     0.7106     0.4741     8.6400     0.7019    -0.0067     0.7099
   29    0.560   2133.99     0.8268     0.0038     0.0013     0.0056     0.8272     0.4648     8.9600     0.8182    -0.0057     0.8262
   30    0.580   2135.01     0.8215     0.0037     0.0020     0.0058     0.8221     0.4570     9.2800     0.8129    -0.0053     0.8206
   31    0.600   2136.02     0.7423     0.0036     0.0046     0.0060     0.7443     0.4800     9.6000     0.7347    -0.0016     0.7395
   32    0.620   2137.04     0.8736     0.0034     0.0037     0.0062     0.8750     0.3920     9.9200     0.8650    -0.0035     0.8718
   33    0.640   2138.03     0.7165     0.0013     0.0098     0.0064     0.7202     0.1533    10.2400     0.7100     0.0035     0.7115
   34    0.660   2139.07     0.7457     0.0029     0.0079     0.0066     0.7492     0.4245    10.5600     0.7387     0.0026     0.7407
   35    0.680   2140.08     0.9591     0.0056     0.0052     0.0068     0.9617     0.6584    10.8800     0.9509    -0.0005     0.9554
   36    0.700   2141.13     1.1907     0.0055    -0.0015     0.0070     1.1905     0.5121    11.2000     1.1793    -0.0062     1.1909
   37    0.720   2142.13     1.2579     0.0062     0.0005     0.0072     1.2568     0.4775    11.5200     1.2453    -0.0079     1.2594
   38    0.740   2143.14     1.4943     0.0098     0.0035     0.0074     1.4954     0.6853    11.8400     1.4835    -0.0033     1.4929
   39    0.760   2144.18     1.4925     0.0251     0.0055     0.0076     1.4954     1.7043    12.1600     1.4832    -0.0005     1.4886
   40    0.780   2145.18     1.8053     0.0224     0.0067     0.0078     1.8078     1.3345    12.4800     1.7953    -0.0011     1.8019
   41    0.800   2146.18     1.7706     0.0222     0.0086     0.0080     1.7745     1.2515    12.8000     1.7617     0.0007     1.7652
   42    0.820   2147.20     2.1363     0.0258     0.0082     0.0082     2.1395     1.2202    13.1200     2.1264    -0.0002     2.1318
   43    0.840   2148.22     2.3214    -0.0003     0.0090     0.0084     2.3250    -0.0109    13.4400     2.3116     0.0001     2.3165
   44    0.860   2149.20     2.8678     0.0230     0.0065     0.0086     2.8704     0.8069    13.7600     2.8567    -0.0008     2.8641
   45    0.880   2150.72     3.3555     0.0153     0.0079     0.0088     3.3584     0.4351    14.0800     3.3443    -0.0005     3.3514
   46    0.900   2169.97     3.7457     0.0248     0.0073     0.0090     3.7489     0.9362    14.4000     3.7345    -0.0004     3.7413
   47    0.920   2189.19     4.1282     0.0189     0.0085     0.0092     4.1312     0.6608    14.7200     4.1165    -0.0005     4.1240
   48    0.940   2190.20     2.4314     0.0226     0.0113     0.0094     2.4362     0.7626    15.0400     2.4211     0.0008     2.4247
   49    0.960   2191.23     2.7584     0.0438     0.0112     0.0096     2.7627     1.9908    15.3600     2.7474     0.0003     2.7524
   50    0.980   2192.23     2.5099     0.0249     0.0108     0.0098     2.5147     1.0689    15.6800     2.4990     0.0007     2.5033
   51    1.000   2193.28     2.8338     0.0169     0.0107     0.0100     2.8382     0.6242    16.0000     2.8222     0.0002     2.8277
   52    1.020   2194.29     3.1882     0.0211     0.0106     0.0102     3.1927     0.6723    16.3200     3.1764     0.0002     3.1820
   53    1.040   2195.30     3.1713     0.0198     0.0119     0.0104     3.1760     0.6001    16.6400     3.1593     0.0002     3.1648
   54    1.060   2196.31     3.3897     0.0180     0.0117     0.0106     3.3942     0.5595    16.9600     3.3773     0.0001     3.3835
   55    1.080   2197.33     3.4277     0.0135     0.0119     0.0108     3.4329     0.4113    17.2800     3.4156     0.0004     3.4206
   56    1.100   2198.36     3.6736     0.0128     0.0127     0.0110     3.6788     0.3495    17.6000     3.6612     0.0004     3.6665
   57    1.120   2199.36     3.7195     0.0097     0.0120     0.0112     3.7244     0.2621    17.9200     3.7065     0.0002     3.7126
   58    1.140   2200.39     3.8516     0.0075     0.0126     0.0114     3.8568     0.1995    18.2400     3.8385     0.0002     3.8445
   59    1.160   2201.39     3.8334     0.0064     0.0130     0.0116     3.8390     0.1665    18.5600     3.8204     0.0004     3.8258
   60    1.180   2202.42     3.9036     0.0085     0.0133     0.0118     3.9092     0.2203    18.8800     3.8904     0.0004     3.8959
   61    1.200   2203.42     4.2379     0.0098     0.0132     0.0120     4.2434     0.2409    19.2000     4.2242     0.0002     4.2304
   62    1.220   2204.45     4.5297     0.0090     0.0132     0.0122     4.5353     0.2041    19.5200     4.5157     0.0002     4.5220
   63    1.240   2205.48     4.7406     0.0115     0.0133     0.0124     4.7462     0.2430    19.8400     4.7264     0.0002     4.7329
   64    1.260   2206.55     4.8832     0.0099     0.0134     0.0126     4.8887     0.2028    20.1600     4.8686     0.0001     4.8755
   65    1.280   2207.49     4.8004     0.0103     0.0134     0.0128     4.8059     0.2156    20.4800     4.7855     0.0001     4.7927
   66    1.300   2208.56     4.8983     0.0098     0.0140     0.0130     4.9041     0.2051    20.8000     4.8833     0.0002     4.8903
   67    1.320   2209.57     4.9544     0.0095     0.0142     0.0132     4.9603     0.1909    21.1200     4.9392     0.0002     4.9461
   68    1.340   2210.56     5.0371     0.0093     0.0143     0.0134     5.0431     0.1871    21.4400     5.0217     0.0002     5.0288
   69    1.360   2211.61     4.9084     0.0123     0.0145     0.0136     4.9145     0.2515    21.7600     4.8927     0.0002     4.9001
   70    1.380   2212.61     5.0101     0.0214     0.0151     0.0138     5.0163     0.4285    22.0800     4.9942     0.0002     5.0015
   71    1.400   2213.62     5.0007     0.0182     0.0150     0.0140     5.0070     0.3662    22.4000     4.9846     0.0002     4.9921
   72    1.420   2214.67     4.9645     0.0177     0.0154     0.0142     4.9710     0.3557    22.7200     4.9483     0.0003     4.9555
   73    1.440   2215.67     5.0089     0.0185     0.0155     0.0144     5.0154     0.3696    23.0400     4.9924     0.0002     4.9998
   74    1.460   2216.67     5.0307     0.0191     0.0153     0.0146     5.0372     0.3802    23.3600     5.0138     0.0002     5.0217
   75    1.480   2217.67     5.0794     0.0191     0.0149     0.0148     5.0859     0.3761    23.6800     5.0622     0.0001     5.0705
   76    1.500   2218.67     5.1607     0.0189     0.0157     0.0150     5.1673     0.3699    24.0000     5.1433     0.0001     5.1516
   77    1.520   2219.72     5.2739     0.0187     0.0163     0.0152     5.2807     0.3570    24.3200     5.2563     0.0002     5.2645
   78    1.540   2220.78     5.3444     0.0164     0.0169     0.0154     5.3513     0.3097    24.6400     5.3267     0.0002     5.3348
   79    1.560   2221.76     5.4507     0.0162     0.0170     0.0156     5.4579     0.3004    24.9600     5.4329     0.0003     5.4408
   80    1.580   2222.81     5.5764     0.0162     0.0171     0.0158     5.5836     0.2933    25.2800     5.5583     0.0002     5.5664
   81    1.600   2223.85     5.7019     0.0156     0.0169     0.0160     5.7091     0.2739    25.6000     5.6835     0.0002     5.6921
   82    1.620   2224.85     5.7348     0.0134     0.0165     0.0162     5.7418     0.2332    25.9200     5.7159     0.0001     5.7253
   83    1.640   2225.87     5.7033     0.0127     0.0176     0.0164     5.7104     0.2212    26.2400     5.6842     0.0001     5.6934
   84    1.660   2226.86     5.5747     0.0110     0.0175     0.0166     5.5822     0.1947    26.5600     5.5556     0.0002     5.5644
   85    1.680   2227.91     5.4730     0.0104     0.0183     0.0168     5.4806     0.1888    26.8800     5.4537     0.0002     5.4625
   86    1.700   2228.92     5.3262     0.0099     0.0182     0.0170     5.3338     0.1832    27.2000     5.3066     0.0002     5.3157
   87    1.720   2229.94     5.1338     0.0103     0.0186     0.0172     5.1414     0.1966    27.5200     5.1139     0.0002     5.1232
   88    1.740   2231.00     4.7960     0.0097     0.0191     0.0174     4.8042     0.1999    27.8400     4.7763     0.0004     4.7848
   89    1.760   2232.00     4.4672     0.0120     0.0196     0.0176     4.4752     0.2661    28.1600     4.4470     0.0003     4.4562
   90    1.780   2233.03     4.1457     0.0138     0.0210     0.0178     4.1545     0.3243    28.4800     4.1260     0.0008     4.1335
   91    1.800   2234.00     3.9085     0.0168     0.0224     0.0180     3.9176     0.4183    28.8000     3.8888     0.0010     3.8960
   92    1.820   2235.07     3.8508     0.0177     0.0233     0.0182     3.8604     0.4612    29.1200     3.8313     0.0013     3.8374
   93    1.840   2236.02     4.0736     0.0179     0.0219     0.0184     4.0834     0.4531    29.4400     4.0539     0.0012     4.0602
   94    1.860   2237.10     4.6238     0.0178     0.0204     0.0186     4.6327     0.4069    29.7600     4.6029     0.0005     4.6116
   95    1.880   2238.10     5.2237     0.0172     0.0107     0.0188     5.2296     0.3466    30.0800     5.1996    -0.0009     5.2154
   96    1.900   2239.16     5.9734     0.0149    -0.0009     0.0190     5.9706     0.2637    30.4000     5.9402    -0.0043     5.9772
   97    1.920   2240.20     6.5786     0.0160    -0.0049     0.0192     6.5785     0.2530    30.7200     6.5478    -0.0029     6.5786
   98    1.940   2241.16     6.8329     0.0158     0.0042     0.0194     6.8335     0.2336    31.0400     6.8024    -0.0026     6.8321
   99    1.960   2242.25     6.8418     0.0172     0.0085     0.0196     6.8460     0.2504    31.3600     6.8147    -0.0014     6.8359
  100    1.980   2243.27     6.7760     0.0196     0.0151     0.0198     6.7809     0.2869    31.6800     6.7492    -0.0012     6.7692
  101    2.000   2244.31     6.7055     0.0216     0.0121     0.0200     6.7101     0.3218    32.0000     6.6781    -0.0014     6.6992
  102    2.020   2245.32     6.6168     0.0234     0.0154     0.0202     6.6228     0.3516    32.3200     6.5904    -0.0009     6.6086
  103    2.040   2246.30     6.4647     0.0246     0.0185     0.0204     6.4726     0.3757    32.6400     6.4399    -0.0003     6.4538
  104    2.060   2247.39     6.2128     0.0261     0.0189     0.0206     6.2210     0.4120    32.9600     6.1880    -0.0002     6.2015
  105    2.080   2248.37     5.9565     0.0268     0.0161     0.0208     5.9637     0.4407    33.2800     5.9305    -0.0006     5.9465
  106    2.100   2249.39     5.7170     0.0261     0.0185     0.0210     5.7247     0.4524    33.6000     5.6911    -0.0005     5.7063
  107    2.120   2250.43     5.5187     0.0246     0.0217     0.0212     5.5278     0.4424    33.9200     5.4939     0.0001     5.5060
  108    2.140   2251.44     5.2994     0.0246     0.0228     0.0214     5.3082     0.4544    34.2400     5.2739    -0.0001     5.2872
  109    2.160   2252.45     5.0836     0.0253     0.0272     0.0216     5.0944     0.4882    34.5600     5.0599     0.0008     5.0686
  110    2.180   2253.51     4.9310     0.0228     0.0289     0.0218     4.9429     0.4584    34.8800     4.9081     0.0013     4.9146
  111    2.200   2254.51     4.8331     0.0214     0.0307     0.0220     4.8459     0.4392    35.2000     4.8107     0.0017     4.8156
  112    2.220   2255.53     4.7623     0.0198     0.0300     0.0222     4.7753     0.4123    35.5200     4.7398     0.0018     4.7444
  113    2.240   2256.58     4.6930     0.0169     0.0173     0.0224     4.7024     0.3580    35.8400     4.6665     0.0000     4.6801
  114    2.260   2257.59     4.6146     0.0145     0.0071     0.0226     4.6181     0.3109    36.1600     4.5820    -0.0031     4.6096
  115    2.280   2258.66     4.4845     0.0114     0.0146     0.0228     4.4905     0.2527    36.4800     4.4540    -0.0019     4.4761
  116    2.300   2259.70     4.3577     0.0097     0.0228     0.0230     4.3657     0.2222    36.8000     4.3289    -0.0009     4.3466
  117    2.320   2260.71     4.2774     0.0092     0.0307     0.0232     4.2899     0.2136    37.1200     4.2528     0.0016     4.2601
  118    2.340   2261.72     4.1857     0.0100     0.0324     0.0234     4.2005     0.2374    37.4400     4.1631     0.0029     4.1652
  119    2.360   2262.71     4.1275     0.0086     0.0108     0.0236     4.1370     0.2092    37.7600     4.0993    -0.0002     4.1143
  120    2.380   2263.74     4.1070     0.0077     0.0123     0.0238     4.1111     0.1867    38.0800     4.0731    -0.0034     4.1012
  121    2.400   2264.76     4.1572     0.0076     0.0083     0.0240     4.1619     0.1838    38.4000     4.1235    -0.0031     4.1507
  122    2.420   2265.75     4.2848     0.0080     0.0057     0.0242     4.2884     0.1899    38.7200     4.2497    -0.0037     4.2799
  123    2.440   2266.80     4.4101     0.0081    -0.0005     0.0244     4.4134     0.1856    39.0400     4.3744    -0.0037     4.4054
  124    2.460   2267.82     4.5029     0.0091     0.0175     0.0246     4.5088     0.2026    39.3600     4.4694    -0.0024     4.4949
  125    2.480   2268.84     4.5529     0.0099     0.0325     0.0248     4.5652     0.2177    39.6800     4.5255     0.0010     4.5358
  126    2.500   2269.86     4.7082     0.0110     0.0368     0.0250     4.7235     0.2382    40.0000     4.6835     0.0024     4.6872
  127    2.520   2270.88     4.8659     0.0116     0.0378     0.0252     4.8816     0.2427    40.3200     4.8413     0.0025     4.8441
  128    2.540   2271.90     5.1083     0.0118     0.0281     0.0254     5.1213     0.2358    40.6400     5.0807     0.0011     5.0904
  129    2.560   2272.93     5.2960     0.0120     0.0369     0.0256     5.3102     0.2300    40.9600     5.2692     0.0015     5.2765
  130    2.580   2273.91     5.4647     0.0130     0.0301     0.0258     5.4778     0.2405    41.2800     5.4365     0.0010     5.4466
  131    2.600   2274.97     5.5862     0.0143     0.0315     0.0260     5.5990     0.2582    41.6000     5.5574     0.0008     5.5684
  132    2.620   2276.01     5.7066     0.0144     0.0332     0.0262     5.7203     0.2551    41.9200     5.6784     0.0012     5.6875
  133    2.640   2277.08     5.8853     0.0144     0.0340     0.0264     5.8995     0.2486    42.2400     5.8572     0.0013     5.8657
  134    2.660   2278.10     6.1422     0.0154     0.0312     0.0266     6.1539     0.2537    42.5600     6.1113     0.0002     6.1260
  135    2.680   2279.12     6.4626     0.0167     0.0216     0.0268     6.4743     0.2593    42.8800     6.4314     0.0001     6.4466
  136    2.700   2280.19     6.8443     0.0180     0.0035     0.0270     6.8480     0.2650    43.2000     6.8048    -0.0027     6.8393
  137    2.720   2281.22     7.2617     0.0191     0.0054     0.0272     7.2629     0.2651    43.5200     7.2194    -0.0034     7.2600
  138    2.740   2282.20     7.6959     0.0197     0.0167     0.0274     7.7005     0.2576    43.8400     7.6567    -0.0022     7.6896
  139    2.760   2284.39     8.2383     0.0207     0.0144     0.0276     8.2445     0.2600    44.1600     8.2004    -0.0016     8.2297
  140    2.780   2302.82     8.8775     0.0221     0.0131     0.0278     8.8832     0.2701    44.4800     8.8387    -0.0016     8.8697
  141    2.800   2321.25     9.5168     0.0233     0.0117     0.0280     9.5219     0.2848    44.8000     9.4771    -0.0017     9.5097
  142    2.820   2329.73    10.1298     0.0246    -0.0020     0.0282    10.1316     0.2484    45.1200    10.0865    -0.0024    10.1273
  143    2.840   2330.78    10.5641     0.0267     0.0052     0.0284    10.5645     0.2565    45.4400    10.5191    -0.0026    10.5635
  144    2.860   2331.83    10.9573     0.0305     0.0039     0.0286    10.9590     0.2818    45.7600    10.9132    -0.0023    10.9550
  145    2.880   2332.88    11.3467     0.0331     0.0186     0.0288    11.3546     0.2956    46.0800    11.3085    -0.0009    11.3359
  146    2.900   2333.91    11.7883     0.0353     0.0177     0.0290    11.7964     0.3034    46.4000    11.7500    -0.0008    11.7772
  147    2.920   2334.95    12.3328     0.0360     0.0179     0.0292    12.3407     0.2955    46.7200    12.2940    -0.0008    12.3219
  148    2.940   2336.01    12.9296     0.0359     0.0136     0.0294    12.9361     0.2817    47.0400    12.8891    -0.0011    12.9207
  149    2.960   2337.05    13.6035     0.0363     0.0132     0.0296    13.6087     0.2717    47.3600    13.5613    -0.0013    13.5964
  150    2.980   2338.06    14.2572     0.0371     0.0133     0.0298    14.2644     0.2645    47.6800    14.2167    -0.0009    14.2473
  151    3.000   2339.12    14.9716     0.0395     0.0096     0.0300    14.9764     0.2669    48.0000    14.9284    -0.0012    14.9649
  152    3.020   2340.21    15.6635     0.0440     0.0138     0.0302    15.6671     0.2852    48.3200    15.6188    -0.0014    15.6585
  153    3.040   2341.30    16.3546     0.0482     0.0057     0.0304    16.3560     0.2981    48.6400    16.3074    -0.0016    16.3525
  154    3.060   2342.35    16.9662     0.0517     0.0188     0.0306    16.9745     0.3079    48.9600    16.9256    -0.0006    16.9548
  155    3.080   2343.37    17.6221     0.0525     0.0173     0.0308    17.6295     0.3006    49.2800    17.5802    -0.0008    17.6119
  156    3.100   2344.43    18.2066     0.0537     0.0198     0.0310    18.2144     0.2971    49.6000    18.1648    -0.0007    18.1959
  157    3.120   2345.50    18.9642     0.0529     0.0133     0.0312    18.9712     0.2828    49.9200    18.9212    -0.0008    18.9545
  158    3.140   2346.60    19.6738     0.0531     0.0203     0.0314    19.6812     0.2741    50.2400    19.6309    -0.0007    19.6636
  159    3.160   2347.65    20.4507     0.0525     0.0104     0.0316    20.4576     0.2614    50.5600    20.4070    -0.0007    20.4412
  160    3.180   2348.71    21.4040     0.0526     0.0095     0.0318    21.4124     0.2466    50.8800    21.3615    -0.0006    21.3925
  161    3.200   2349.71    22.5544     0.0527     0.0133     0.0320    22.5572     0.2345    51.2000    22.5060    -0.0011    22.5504
  162    3.220   2350.69    23.7411     0.0588     0.0059     0.0322    23.7482     0.2547    51.5200    23.6967    -0.0006    23.7312
  163    3.240   2351.74    25.0561     0.0653     0.0099     0.0324    25.0605     0.2667    51.8400    25.0087    -0.0009    25.0500
  164    3.260   2352.74    26.1452     0.0686    -0.0066     0.0326    26.1470     0.2673    52.1600    26.0949    -0.0011    26.1427
  165    3.280   2353.78    27.2109     0.0683    -0.0281     0.0328    27.2037     0.2523    52.4800    27.1512    -0.0018    27.2209
  166    3.300   2354.77    28.2058     0.0642    -0.0149     0.0330    28.2021     0.2282    52.8000    28.1493    -0.0015    28.2109
  167    3.320   2355.75    29.1159     0.0653    -0.0157     0.0332    29.1131     0.2248    53.1200    29.0600    -0.0014    29.1199
  168    3.340   2356.80    30.3506     0.0682    -0.0045     0.0334    30.3449     0.2252    53.4400    30.2914    -0.0016    30.3586
  169    3.360   2357.76    31.3366     0.0694    -0.0225     0.0336    31.3365     0.2250    53.7600    31.2827    -0.0011    31.3368
  170    3.380   2358.81    31.9004     0.0722    -0.0051     0.0338    31.8961     0.2264    54.0800    31.8420    -0.0014    31.9063
  171    3.400   2359.82    32.3205     0.0723    -0.0182     0.0340    32.3173     0.2239    54.4000    32.2629    -0.0013    32.3250
  172    3.420   2360.81    32.2051     0.0715    -0.0153     0.0342    32.1977     0.2222    54.7200    32.1429    -0.0016    32.2153
  173    3.440   2361.83    32.0821     0.0698    -0.0177     0.0344    32.0753     0.2172    55.0400    32.0203    -0.0016    32.0914
  174    3.460   2362.83    31.7192     0.0680    -0.0068     0.0346    31.7186     0.2143    55.3600    31.6633    -0.0011    31.7200
  175    3.480   2363.83    31.3564     0.0681     0.0153     0.0348    31.3579     0.2170    55.6800    31.3022    -0.0010    31.3544
  176    3.500   2364.84    31.2026     0.0684    -0.0073     0.0350    31.2018     0.2191    56.0000    31.1458    -0.0012    31.2036
  177    3.520   2365.83    31.0468     0.0669     0.0256     0.0352    31.0536     0.2156    56.3200    30.9973    -0.0006    31.0374
  178    3.540   2366.83    30.8883     0.0621     0.0076     0.0354    30.8899     0.2005    56.6400    30.8333    -0.0010    30.8860
  179    3.560   2367.81    30.4594     0.0613     0.0051     0.0356    30.4661     0.2006    56.9600    30.4092    -0.0006    30.4502
  180    3.580   2368.80    30.1194     0.0587     0.0031     0.0358    30.1234     0.1942    57.2800    30.0661    -0.0009    30.1140
  181    3.600   2369.80    29.4697     0.0622     0.0121     0.0360    29.4723     0.2106    57.6000    29.4147    -0.0010    29.4661
  182    3.620   2370.84    28.9686     0.0624     0.0135     0.0362    28.9700     0.2153    57.9200    28.9121    -0.0011    28.9666
  183    3.640   2371.79    29.1720     0.0593     0.0061     0.0364    29.1732     0.2030    58.2400    29.1149    -0.0012    29.1704
  184    3.660   2372.81    28.8173     0.0599    -0.0033     0.0366    28.8247     0.2072    58.5600    28.7661    -0.0007    28.8071
  185    3.680   2373.79    28.2061     0.0603     0.0106     0.0368    28.2097     0.2134    58.8800    28.1508    -0.0010    28.2013
  186    3.700   2374.77    27.6773     0.0616     0.0179     0.0370    27.6868     0.2222    59.2000    27.6276    -0.0005    27.6643
  187    3.720   2375.80    27.1857     0.0584     0.0245     0.0372    27.1968     0.2145    59.5200    27.1373    -0.0004    27.1703
  188    3.740   2376.76    26.8863     0.0541     0.0296     0.0374    26.8952     0.2011    59.8400    26.8354    -0.0006    26.8739
  189    3.760   2377.77    26.6514     0.0524     0.0189     0.0376    26.6618     0.1965    60.1600    26.6016    -0.0005    26.6372
  190    3.780   2378.80    26.4261     0.0493     0.0229     0.0378    26.4398     0.1865    60.4800    26.3794    -0.0002    26.4070
  191    3.800   2379.79    26.2270     0.0484     0.0205     0.0380    26.2386     0.1844    60.8000    26.1778    -0.0004    26.2110
  192    3.820   2380.81    26.1525     0.0528     0.0308     0.0382    26.1639     0.2020    61.1200    26.1028    -0.0004    26.1368
  193    3.840   2381.79    26.5916     0.0579     0.0202     0.0384    26.6007     0.2179    61.4400    26.5392    -0.0006    26.5790
  194    3.860   2382.81    27.3485     0.0634     0.0274     0.0386    27.3594     0.2320    61.7600    27.2976    -0.0005    27.3336
  195    3.880   2383.83    28.3408     0.0728     0.0213     0.0388    28.3536     0.2584    62.0800    28.2915    -0.0003    28.3232
  196    3.900   2384.84    29.5443     0.0788     0.0369     0.0390    29.5566     0.2676    62.4000    29.4942    -0.0003    29.5274
  197    3.920   2385.80    30.6189     0.0804     0.0142     0.0392    30.6236     0.2631    62.7200    30.5609    -0.0009    30.6124
  198    3.940   2386.84    31.2521     0.0819    -0.0011     0.0394    31.2569     0.2623    63.0400    31.1938    -0.0009    31.2455
  199    3.960   2387.85    31.2828     0.0829     0.0091     0.0396    31.2854     0.2648    63.3600    31.2221    -0.0011    31.2792
  200    3.980   2388.87    31.1303     0.0851     0.0120     0.0398    31.1360     0.2733    63.6800    31.0723    -0.0008    31.1225
  201    4.000   2389.85    30.7750     0.0814     0.0030     0.0400    30.7742     0.2641    64.0000    30.7102    -0.0014    30.7761
  202    4.020   2390.82    30.4437     0.0810    -0.0024     0.0402    30.4417     0.2656    64.3200    30.3774    -0.0015    30.4464
  203    4.040   2391.82    30.1827     0.0780     0.0134     0.0404    30.1873     0.2582    64.6400    30.1226    -0.0010    30.1763
  204    4.060   2392.82    30.0728     0.0734     0.0244     0.0406    30.0819     0.2438    64.9600    30.0169    -0.0006    30.0603
  205    4.080   2393.88    30.0441     0.0720     0.0151     0.0408    30.0526     0.2396    65.2800    29.9873    -0.0007    30.0323
  206    4.100   2394.85    30.1474     0.0716     0.0139     0.0410    30.1493     0.2376    65.6000    30.0837    -0.0012    30.1447
  207    4.120   2395.86    30.2721     0.0677     0.0233     0.0412    30.2771     0.2234    65.9200    30.2112    -0.0010    30.2652
  208    4.140   2396.86    30.4074     0.0683     0.0208     0.0414    30.4112     0.2252    66.2400    30.3449    -0.0011    30.4022
  209    4.160   2397.88    31.0496     0.0661     0.0165     0.0416    31.0526     0.2134    66.5600    30.9860    -0.0011    31.0456
  210    4.180   2398.88    31.6469     0.0628     0.0155     0.0418    31.6535     0.1999    66.8800    31.5867    -0.0008    31.6377
  211    4.200   2399.92    31.8157     0.0573     0.0143     0.0420    31.8218     0.1802    67.2000    31.7546    -0.0009    31.8073
  212    4.220   2400.95    31.7560     0.0524     0.0041     0.0422    31.7548     0.1651    67.5200    31.6873    -0.0014    31.7577
  213    4.240   2401.94    31.3775     0.0477    -0.0148     0.0424    31.3759     0.1516    67.8400    31.3081    -0.0015    31.3797
  214    4.260   2402.93    30.9331     0.0458    -0.0401     0.0426    30.9214     0.1479    68.1600    30.8532    -0.0023    30.9494
  215    4.280   2403.97    30.0042     0.0419    -0.0528     0.0428    29.9805     0.1389    68.4800    29.9120    -0.0033    30.0371
  216    4.300   2404.93    29.1602     0.0394    -0.0784     0.0430    29.1315     0.1343    68.8000    29.0627    -0.0038    29.1997
  217    4.320   2405.93    28.1202     0.0396    -0.0488     0.0432    28.0993     0.1395    69.1200    28.0301    -0.0033    28.1490
  218    4.340   2406.95    26.8978     0.0453    -0.0226     0.0434    26.8827     0.1664    69.4400    26.8132    -0.0030    26.9187
  219    4.360   2407.93    25.5434     0.0512     0.0088     0.0436    25.5428     0.1983    69.7600    25.4731    -0.0018    25.5442
  220    4.380   2408.91    24.2066     0.0491    -0.0087     0.0438    24.2044     0.2008    70.0800    24.1344    -0.0020    24.2096
  221    4.400   2409.88    23.0381     0.0443     0.0036     0.0440    23.0370     0.1903    70.4000    22.9666    -0.0020    23.0397
  222    4.420   2410.85    21.9434     0.0400     0.0199     0.0442    21.9506     0.1811    70.7200    21.8798    -0.0012    21.9334
  223    4.440   2411.83    21.4224     0.0387    -0.0083     0.0444    21.4252     0.1806    71.0400    21.3542    -0.0018    21.4186
  224    4.460   2412.81    21.5925     0.0353    -0.0589     0.0446    21.5757     0.1636    71.3600    21.5043    -0.0039    21.6158
  225    4.480   2413.80    21.6928     0.0359    -0.0713     0.0448    21.6512     0.1655    71.6800    21.5795    -0.0067    21.7504
  226    4.500   2414.81    21.6922     0.0377    -0.0638     0.0450    21.6591     0.1736    72.0000    21.5871    -0.0057    21.7378
  227    4.520   2415.79    21.6345     0.0379    -0.0374     0.0452    21.6186     0.1751    72.3200    21.5462    -0.0039    21.6565
  228    4.540   2416.78    21.3334     0.0455    -0.0280     0.0454    21.3225     0.2130    72.6400    21.2498    -0.0034    21.3485
  229    4.560   2417.73    20.8142     0.0477    -0.0349     0.0456    20.7971     0.2263    72.9600    20.7241    -0.0042    20.8379
  230    4.580   2418.72    20.2381     0.0479    -0.0116     0.0458    20.2268     0.2333    73.2800    20.1535    -0.0036    20.2539
  231    4.600   2419.71    19.5167     0.0450    -0.0131     0.0460    19.5081     0.2276    73.6000    19.4345    -0.0034    19.5286
  232    4.620   2420.72    18.8027     0.0426     0.0117     0.0462    18.8010     0.2245    73.9200    18.7271    -0.0027    18.8049
  233    4.640   2421.75    18.1981     0.0409    -0.0049     0.0464    18.1969     0.2234    74.2400    18.1227    -0.0027    18.1999
  234    4.660   2422.84    17.6361     0.0390     0.0011     0.0466    17.6384     0.2198    74.5600    17.5638    -0.0023    17.6330
  235    4.680   2423.90    17.4050     0.0369    -0.0226     0.0468    17.3965     0.2135    74.8800    17.3217    -0.0039    17.4166
  236    4.700   2424.98    16.9256     0.0396    -0.0172     0.0470    16.9144     0.2365    75.2000    16.8392    -0.0044    16.9411
  237    4.720   2426.04    16.3252     0.0424     0.0075     0.0472    16.3249     0.2595    75.5200    16.2493    -0.0029    16.3256
  238    4.740   2427.12    15.9424     0.0454    -0.0130     0.0474    15.9405     0.2846    75.8400    15.8647    -0.0033    15.9449
  239    4.760   2428.09    15.6667     0.0485    -0.0131     0.0476    15.6616     0.3062    76.1600    15.5855    -0.0038    15.6737
  240    4.780   2429.35    15.3965     0.0532     0.0070     0.0478    15.3977     0.3434    76.4800    15.3213    -0.0029    15.3948
  241    4.800   2439.53    15.3071     0.0590     0.0186     0.0480    15.3132     0.3833    76.8000    15.2364    -0.0022    15.2987
  242    4.820   2449.72    15.2177     0.0666     0.0302     0.0482    15.2287     0.4327    77.1200    15.1516    -0.0014    15.2025
  243    4.840   2459.91    15.1283     0.0700     0.0396     0.0484    15.1442     0.4579    77.4400    15.0668    -0.0007    15.1064
  244    4.860   2461.21    15.2581     0.0697     0.0293     0.0486    15.2726     0.4580    77.7600    15.1948    -0.0009    15.2381
  245    4.880   2462.27    15.3471     0.0659     0.0391     0.0488    15.3635     0.4297    78.0800    15.2854    -0.0006    15.3244
  246    4.900   2463.36    15.5572     0.0625     0.0365     0.0490    15.5729     0.4043    78.4000    15.4945    -0.0008    15.5355
  247    4.920   2464.40    15.9318     0.0613     0.0164     0.0492    15.9413     0.3888    78.7200    15.8626    -0.0017    15.9186
  248    4.940   2465.47    16.5211     0.0592     0.0179     0.0494    16.5278     0.3660    79.0400    16.4488    -0.0020    16.5118
  249    4.960   2466.52    17.6798     0.0560     0.0335     0.0496    17.6925     0.3229    79.3600    17.6132    -0.0011    17.6623
  250    4.980   2467.58    19.4353     0.0532     0.0312     0.0498    19.4506     0.2778    79.6800    19.3709    -0.0007    19.4142
  251    5.000   2468.59    21.5153     0.0521    -0.0437     0.0500    21.5193     0.2454    80.0000    21.4393    -0.0019    21.5099
  252    5.020   2469.59    23.4057     0.0533    -0.1572     0.0502    23.3467     0.2303    80.3200    23.2664    -0.0082    23.4871
  253    5.040   2470.62    24.5624     0.0559    -0.1993     0.0504    24.4865     0.2291    80.6400    24.4059    -0.0095    24.6671
  254    5.060   2471.60    25.1944     0.0566    -0.2086     0.0506    25.1053     0.2250    80.9600    25.0244    -0.0105    25.3174
  255    5.080   2472.58    25.3611     0.0584    -0.1865     0.0508    25.2788     0.2304    81.2800    25.1975    -0.0098    25.4747
  256    5.100   2473.58    25.3054     0.0628    -0.1216     0.0510    25.2425     0.2479    81.6000    25.1609    -0.0080    25.3922
  257    5.120   2474.55    25.1517     0.0659    -0.0632     0.0512    25.1182     0.2618    81.9200    25.0362    -0.0052    25.1980
  258    5.140   2475.58    24.9115     0.0668    -0.0295     0.0514    24.8984     0.2679    82.2400    24.8161    -0.0033    24.9298
  259    5.160   2476.58    24.7806     0.0683    -0.0011     0.0516    24.7746     0.2754    82.5600    24.6920    -0.0027    24.7890
  260    5.180   2477.58    24.8001     0.0688     0.0065     0.0518    24.8029     0.2772    82.8800    24.7200    -0.0018    24.7962
  261    5.200   2478.60    24.7040     0.0727     0.0018     0.0520    24.7043     0.2939    83.2000    24.6211    -0.0021    24.7034
  262    5.220   2479.55    24.0781     0.0807     0.0202     0.0522    24.0867     0.3307    83.5200    24.0032    -0.0013    24.0663
  263    5.240   2480.55    23.1192     0.0790     0.0125     0.0524    23.1250     0.3354    83.8400    23.0411    -0.0017    23.1111
  264    5.260   2481.51    22.2194     0.0698     0.0142     0.0526    22.2245     0.3085    84.1600    22.1403    -0.0018    22.2124
  265    5.280   2482.53    21.2360     0.0686     0.0155     0.0528    21.2414     0.3172    84.4800    21.1569    -0.0019    21.2286
  266    5.300   2483.53    20.2671     0.0731     0.0236     0.0530    20.2756     0.3549    84.8000    20.1908    -0.0016    20.2552
  267    5.320   2484.58    19.5717     0.0850     0.0289     0.0532    19.5855     0.4320    85.1200    19.5004    -0.0010    19.5526
  268    5.340   2485.66    19.0353     0.0904     0.0246     0.0534    19.0477     0.4744    85.4400    18.9623    -0.0013    19.0182
  269    5.360   2486.66    18.9276     0.0814     0.0259     0.0536    18.9378     0.4300    85.7600    18.8521    -0.0015    18.9134
  270    5.380   2487.71    19.3254     0.0766     0.0251     0.0538    19.3382     0.3976    86.0800    19.2521    -0.0012    19.3078
  271    5.400   2488.72    19.9567     0.0689    -0.0069     0.0540    19.9550     0.3448    86.4000    19.8686    -0.0029    19.9591
  272    5.420   2489.67    19.7127     0.0624    -0.1250     0.0542    19.6746     0.3149    86.7200    19.5879    -0.0074    19.7652
  273    5.440   2490.70    18.7843     0.0500    -0.1849     0.0544    18.7110     0.2608    87.0400    18.6239    -0.0123    18.8857
  274    5.460   2491.72    17.2520     0.0393    -0.2119     0.0546    17.1626     0.2200    87.3600    17.0753    -0.0157    17.3753
  275    5.480   2492.76    16.1406     0.0465    -0.2249     0.0548    16.0480     0.2799    87.6800    15.9603    -0.0173    16.2686
  276    5.500   2493.80    15.2633     0.0689    -0.2176     0.0550    15.1694     0.4425    88.0000    15.0814    -0.0185    15.3930
  277    5.520   2494.84    14.2363     0.0955    -0.1878     0.0552    14.1522     0.6550    88.3200    14.0639    -0.0182    14.3524
  278    5.540   2495.89    13.1280     0.1075    -0.1458     0.0554    13.0597     0.7930    88.6400    12.9710    -0.0168    13.2225
  279    5.560   2496.89    11.8057     0.1160    -0.0955     0.0556    11.7571     0.9353    88.9600    11.6681    -0.0147    11.8728
  280    5.580   2497.91    10.2412     0.1013    -0.0388     0.0558    10.2169     0.9595    89.2800    10.1276    -0.0112    10.2748
  281    5.600   2498.97     9.6706     0.1002     0.0452     0.0560     9.6792     1.0360    89.6000     9.5896    -0.0037     9.6588
  282    5.620   2500.07    10.7429     0.0896     0.0581     0.0562    10.7681     0.8724    89.9200    10.6781     0.0004    10.7081
  283    5.640   2501.08    11.9376     0.0833     0.0779     0.0564    11.9668     0.7151    90.2400    11.8765     0.0011    11.8972
  284    5.660   2502.13    12.8885     0.0845    -0.0599     0.0566    12.9016     0.6663    90.5600    12.8110    -0.0020    12.8705
  285    5.680   2503.23    13.8955     0.0820    -0.1226     0.0568    13.8413     0.6014    90.8800    13.7504    -0.0135    13.9705
  286    5.700   2504.25    14.9026     0.0715    -0.1111     0.0570    14.8534     0.4892    91.2000    14.7622    -0.0118    14.9705
  287    5.720   2505.32    15.7268     0.0670    -0.0988     0.0572    15.6812     0.4356    91.5200    15.5897    -0.0106    15.7898
  288    5.740   2506.38    16.2887     0.0719    -0.1064     0.0574    16.2455     0.4445    91.8400    16.1536    -0.0099    16.3484
  289    5.760   2507.47    16.4923     0.0704    -0.1167     0.0576    16.4429     0.4289    92.1600    16.3507    -0.0107    16.5606
  290    5.780   2508.47    16.6574     0.0723    -0.0941     0.0578    16.6127     0.4362    92.4800    16.5202    -0.0099    16.7192
  291    5.800   2509.54    16.8232     0.0738    -0.0703     0.0580    16.7908     0.4395    92.8000    16.6980    -0.0081    16.8680
  292    5.820   2510.56    17.0936     0.0736    -0.0539     0.0582    17.0678     0.4308    93.1200    16.9747    -0.0070    17.1292
  293    5.840   2511.58    17.7766     0.0755    -0.0185     0.0584    17.7645     0.4264    93.4400    17.6710    -0.0049    17.7934
  294    5.860   2512.64    19.0915     0.0802     0.0119     0.0586    19.0899     0.4263    93.7600    18.9961    -0.0033    19.0937
  295    5.880   2513.64    20.4598     0.0875     0.0353     0.0588    20.4725     0.4333    94.0800    20.3784    -0.0014    20.4424
  296    5.900   2514.64    21.8076     0.0947     0.0269     0.0590    21.8238     0.4391    94.4000    21.7294    -0.0009    21.7851
  297    5.920   2515.57    22.8349     0.1000     0.0168     0.0592    22.8416     0.4408    94.7200    22.7469    -0.0019    22.8256
  298    5.940   2516.57    23.5833     0.0998     0.0091     0.0594    23.5879     0.4242    95.0400    23.4929    -0.0021    23.5770
  299    5.960   2517.53    23.6959     0.1003     0.0064     0.0596    23.6974     0.4229    95.3600    23.6020    -0.0024    23.6939
  300    5.980   2518.56    23.5516     0.1000     0.0192     0.0598    23.5619     0.4242    95.6800    23.4662    -0.0015    23.5372
  301    6.000   2519.59    23.6977     0.0938     0.0210     0.0600    23.7036     0.3970    96.0000    23.6076    -0.0019    23.6895
  302    6.020   2520.55    24.1169     0.0872     0.0317     0.0602    24.1285     0.3631    96.3200    24.0322    -0.0013    24.1008
  303    6.040   2521.55    24.7385     0.0827     0.0435     0.0604    24.7569     0.3357    96.6400    24.6602    -0.0007    24.7132
  304    6.060   2522.55    25.5060     0.0788    -0.0088     0.0606    25.5132     0.3105    96.9600    25.4162    -0.0017    25.4962
  305    6.080   2523.54    25.9335     0.0764    -0.0826     0.0608    25.9032     0.2955    97.2800    25.8060    -0.0051    25.9752
  306    6.100   2524.53    25.8736     0.0732    -0.0653     0.0610    25.8437     0.2822    97.6000    25.7461    -0.0051    25.9149
  307    6.120   2525.53    25.5586     0.0752    -0.0481     0.0612    25.5360     0.2936    97.9200    25.4381    -0.0045    25.5898
  308    6.140   2526.50    25.0377     0.0789    -0.0285     0.0614    25.0222     0.3129    98.2400    24.9240    -0.0039    25.0590
  309    6.160   2527.45    24.3135     0.0805    -0.0076     0.0616    24.3068     0.3297    98.5600    24.2083    -0.0032    24.3227
  310    6.180   2528.46    23.6034     0.0843     0.0131     0.0618    23.6078     0.3548    98.8800    23.5090    -0.0022    23.5972
  311    6.200   2529.47    22.9026     0.0895     0.0008     0.0620    22.9056     0.3885    99.2000    22.8064    -0.0024    22.8983
  312    6.220   2530.44    21.8762     0.0813    -0.0223     0.0622    21.8687     0.3626    99.5200    21.7692    -0.0037    21.8866
  313    6.240   2531.38    20.5662     0.0764     0.0054     0.0624    20.5645     0.3635    99.8400    20.4647    -0.0032    20.5685
  314    6.260   2532.44    18.5685     0.0730     0.0183     0.0626    18.5721     0.3809   100.1600    18.4719    -0.0029    18.5635
  315    6.280   2533.46    16.8154     0.0690     0.0308     0.0628    16.8268     0.4022   100.4800    16.7263    -0.0021    16.7996
  316    6.300   2534.56    15.5951     0.0667     0.0463     0.0630    15.6095     0.4221   100.8000    15.5087    -0.0019    15.5752
  317    6.320   2535.61    15.0585     0.0664     0.0415     0.0632    15.0746     0.4379   101.1200    14.9735    -0.0017    15.0362
  318    6.340   2536.67    14.7938     0.0840     0.0113     0.0634    14.8053     0.5632   101.4400    14.7039    -0.0024    14.7779
  319    6.360   2537.67    14.6205     0.0962    -0.0354     0.0636    14.6129     0.6564   101.7600    14.5111    -0.0056    14.6310
  320    6.380   2538.76    14.9621     0.0816    -0.0353     0.0638    14.9432     0.5532   102.0800    14.8411    -0.0073    14.9881
  321    6.400   2539.86    16.1102     0.0764    -0.0853     0.0640    16.0781     0.4815   102.4000    15.9757    -0.0088    16.1545
  322    6.420   2540.84    17.7156     0.0637    -0.0971     0.0642    17.6770     0.3620   102.7200    17.5743    -0.0089    17.7690
  323    6.440   2541.90    20.0991     0.0577    -0.1286     0.0644    20.0518     0.3018   103.0400    19.9488    -0.0089    20.1643
  324    6.460   2542.88    23.5840     0.0518    -0.1884     0.0646    23.5125     0.2229   103.3600    23.4092    -0.0100    23.6827
  325    6.480   2543.96    27.6113     0.0467    -0.2314     0.0648    27.5178     0.1743   103.6800    27.4142    -0.0105    27.7403
  326    6.500   2544.94    29.9831     0.0443    -0.2678     0.0650    29.8809     0.1494   104.0000    29.7769    -0.0103    30.1241
  327    6.520   2545.95    30.9331     0.0452    -0.2583     0.0652    30.8238     0.1465   104.3200    30.7195    -0.0106    31.0839
  328    6.540   2546.94    30.5602     0.0425    -0.2588     0.0654    30.4522     0.1380   104.6400    30.3475    -0.0106    30.7095
  329    6.560   2547.95    29.4386     0.0556    -0.2576     0.0656    29.3303     0.1867   104.9600    29.2254    -0.0111    29.5880
  330    6.580   2548.89    27.6760     0.0628    -0.2515     0.0658    27.5695     0.2231   105.2800    27.4642    -0.0116    27.8232
  331    6.600   2549.86    25.8540     0.0708    -0.2433     0.0660    25.7504     0.2715   105.6000    25.6448    -0.0122    25.9971
  332    6.620   2550.81    24.0974     0.0755    -0.2433     0.0662    23.9968     0.3128   105.9200    23.8909    -0.0128    24.2363
  333    6.640   2551.78    22.3720     0.0764    -0.2360     0.0664    22.2715     0.3376   106.2400    22.1652    -0.0138    22.5109
  334    6.660   2552.77    20.8021     0.0745    -0.2219     0.0666    20.7059     0.3531   106.5600    20.5994    -0.0143    20.9348
  335    6.680   2553.75    19.1271     0.0790    -0.1902     0.0668    19.0427     0.4105   106.8800    18.9358    -0.0141    19.2436
  336    6.700   2554.82    17.3364     0.0818    -0.1552     0.0670    17.2666     0.4673   107.2000    17.1594    -0.0136    17.4328
  337    6.720   2559.94    15.8530     0.0824    -0.0910     0.0672    15.8025     0.5151   107.5200    15.6949    -0.0118    15.9227
  338    6.740   2578.62    15.1828     0.0879    -0.0061     0.0674    15.1679     0.5494   107.8400    15.0601    -0.0065    15.2033
  339    6.760   2597.31    14.5126     0.0812     0.0478     0.0676    14.5334     0.5096   108.1600    14.4252    -0.0012    14.4839
  340    6.780   2598.77    15.1305     0.0675     0.0642     0.0678    15.1554     0.4566   108.4800    15.0469    -0.0006    15.0962
  341    6.800   2599.79    16.7073     0.0542     0.0315     0.0680    16.7271     0.3276   108.8000    16.6183    -0.0012    16.6799
  342    6.820   2600.85    18.8548     0.0425    -0.1536     0.0682    18.8228     0.2291   109.1200    18.7136    -0.0077    18.8991
  343    6.840   2601.85    20.0903     0.0362    -0.2608     0.0684    19.9887     0.1808   109.4400    19.8793    -0.0156    20.2306
  344    6.860   2602.84    20.1209     0.0316    -0.2725     0.0686    20.0058     0.1564   109.7600    19.8960    -0.0172    20.2799
  345    6.880   2603.80    19.4463     0.0374    -0.2713     0.0688    19.3325     0.1889   110.0800    19.2224    -0.0177    19.6033
  346    6.900   2604.80    18.2583     0.0445    -0.2631     0.0690    18.1468     0.2371   110.4000    18.0364    -0.0185    18.4122
  347    6.920   2605.78    17.1397     0.0542    -0.2517     0.0692    17.0319     0.3103   110.7200    16.9212    -0.0193    17.2885
  348    6.940   2606.85    16.3050     0.0590    -0.2354     0.0694    16.2035     0.3565   111.0400    16.0924    -0.0193    16.4453
  349    6.960   2607.89    16.0322     0.0692    -0.2139     0.0696    15.9382     0.4315   111.3600    15.8268    -0.0185    16.1620
  350    6.980   2608.95    16.4307     0.0736    -0.1831     0.0698    16.3484     0.4540   111.6800    16.2367    -0.0164    16.5443
  351    7.000   2610.02    17.0377     0.0690    -0.1378     0.0700    16.9726     0.4116   112.0000    16.8606    -0.0133    17.1275
  352    7.020   2611.01    17.7243     0.0638    -0.0845     0.0702    17.6831     0.3645   112.3200    17.5708    -0.0096    17.7811
  353    7.040   2612.08    18.1992     0.0576    -0.0640     0.0704    18.1717     0.3183   112.6400    18.0591    -0.0075    18.2371
  354    7.060   2613.10    18.7459     0.0520    -0.0790     0.0706    18.7174     0.2811   112.9600    18.6045    -0.0074    18.7851
  355    7.080   2614.14    19.7403     0.0524    -0.0886     0.0708    19.6987     0.2726   113.2800    19.5854    -0.0087    19.7979
  356    7.100   2615.19    20.5664     0.0581    -0.0812     0.0710    20.5295     0.2859   113.6000    20.4159    -0.0078    20.6173
  357    7.120   2616.14    20.6570     0.0600    -0.1075     0.0712    20.6122     0.2897   113.9200    20.4983    -0.0087    20.7188
  358    7.140   2617.19    19.9901     0.0592    -0.0923     0.0714    19.9522     0.2920   114.2400    19.8380    -0.0082    20.0426
  359    7.160   2618.16    19.0092     0.0622    -0.0698     0.0716    18.9775     0.3221   114.5600    18.8629    -0.0078    19.0531
  360    7.180   2619.26    17.7669     0.0642    -0.0568     0.0718    17.7418     0.3510   114.8800    17.6269    -0.0075    17.8016
  361    7.200   2620.33    17.1064     0.0696    -0.0245     0.0720    17.0906     0.4032   115.2000    16.9754    -0.0065    17.1282
  362    7.220   2621.34    16.6760     0.0838     0.0001     0.0722    16.6711     0.4971   115.5200    16.5556    -0.0051    16.6828
  363    7.240   2622.37    16.1995     0.0876     0.0152     0.0724    16.2028     0.5328   115.8400    16.0870    -0.0040    16.1950
  364    7.260   2623.42    15.1603     0.0907     0.0226     0.0726    15.1713     0.5768   116.1600    15.0551    -0.0031    15.1450
  365    7.280   2624.43    13.5518     0.0999    -0.0142     0.0728    13.5517     0.6960   116.4800    13.4352    -0.0055    13.5520
  366    7.300   2625.48    10.5181     0.0914     0.0058     0.0730    10.5150     0.7841   116.8000    10.3982    -0.0077    10.5223
  367    7.320   2626.51     8.2389     0.0931     0.0347     0.0732     8.2513     1.0413   117.1200     8.1342    -0.0053     8.2218
  368    7.340   2627.50     6.9077     0.0904     0.0501     0.0734     6.9255     1.2573   117.4400     6.8080    -0.0045     6.8831
  369    7.360   2628.55     6.9240     0.0879     0.0946     0.0736     6.9577     1.3176   117.7600     6.8400     0.0009     6.8774
  370    7.380   2629.64     9.4133     0.0734     0.0955     0.0738     9.4579     0.8802   118.0800     9.3398     0.0035     9.3516
  371    7.400   2630.65    11.5845     0.0709     0.0376     0.0740    11.6073     0.6401   118.4000    11.4889    -0.0017    11.5530
  372    7.420   2631.74    13.2895     0.0675    -0.0532     0.0742    13.2872     0.5386   118.7200    13.1685    -0.0060    13.2926
  373    7.440   2632.76    14.6310     0.0687    -0.1086     0.0744    14.5901     0.4820   119.0400    14.4711    -0.0119    14.6874
  374    7.460   2633.85    14.9262     0.0675    -0.1027     0.0746    14.8810     0.4555   119.3600    14.7616    -0.0123    14.9887
  375    7.480   2634.89    15.1401     0.0696    -0.1068     0.0748    15.0959     0.4638   119.6800    14.9762    -0.0120    15.2012
  376    7.500   2635.89    15.8943     0.0674    -0.0603     0.0750    15.8626     0.4331   120.0000    15.7426    -0.0096    15.9381
  377    7.520   2636.95    16.6458     0.0637    -0.0519     0.0752    16.6216     0.3865   120.3200    16.5013    -0.0080    16.6791
  378    7.540   2638.00    16.6992     0.0682    -0.0460     0.0754    16.6808     0.4077   120.6400    16.5602    -0.0072    16.7245
  379    7.560   2639.05    16.0871     0.0675    -0.0260     0.0756    16.0740     0.4100   120.9600    15.9531    -0.0067    16.1051
  380    7.580   2640.08    15.0526     0.0583    -0.0692     0.0758    15.0290     0.3738   121.2800    14.9077    -0.0089    15.0851
  381    7.600   2641.11    13.8401     0.0638    -0.0689     0.0760    13.8063     0.4428   121.6000    13.6847    -0.0114    13.8867
  382    7.620   2642.12    12.1175     0.0640    -0.0630     0.0762    12.0922     0.4890   121.9200    11.9703    -0.0114    12.1524
  383    7.640   2643.16    10.2766     0.0628    -0.0665     0.0764    10.2485     0.5735   122.2400    10.1263    -0.0142    10.3154
  384    7.660   2644.22     9.0016     0.0596    -0.0310     0.0766     8.9810     0.6296   122.5600     8.8585    -0.0141     9.0299
  385    7.680   2645.24     8.3107     0.0682     0.0026     0.0768     8.3095     0.7922   122.8800     8.1867    -0.0097     8.3124
  386    7.700   2646.27     7.4220     0.0772    -0.0016     0.0770     7.4254     1.0233   123.2000     7.3022    -0.0095     7.4173
  387    7.720   2647.31     6.3816     0.0689    -0.0021     0.0772     6.3771     1.0074   123.5200     6.2536    -0.0141     6.3879
  388    7.740   2648.33     5.4750     0.0665     0.0089     0.0774     5.4789     1.2067   123.8400     5.3551    -0.0127     5.4697
  389    7.760   2649.35     5.0769     0.0710     0.0140     0.0776     5.0841     1.3589   124.1600     4.9600    -0.0122     5.0669
  390    7.780   2650.38     4.4522     0.0725     0.0358     0.0778     4.4649     1.5486   124.4800     4.3404    -0.0109     4.4347
  391    7.800   2651.38     3.1579     0.0719    -0.0238     0.0780     3.1536     1.8981   124.8000     3.0288    -0.0296     3.1639
  392    7.820   2652.40     2.2402     0.0607    -0.0270     0.0782     2.2228     2.4978   125.1200     2.0977    -0.0572     2.2643
  393    7.840   2653.41     1.6928     0.0475     0.0455     0.0784     1.7003     2.6470   125.4400     1.5749    -0.0377     1.6825
  394    7.860   2654.44     1.2681     0.0422     0.1127     0.0786     1.3104     3.0204   125.7600     1.1846     0.0191     1.2096
  395    7.880   2655.43     1.0309     0.0357     0.1469     0.0788     1.0873     3.4060   126.0800     0.9613     0.0583     0.9529
  396    7.900   2656.49     0.8639     0.0211     0.1703     0.0790     0.9327     2.3007   126.4000     0.8063     0.1052     0.7690
  397    7.920   2657.50     0.7509     0.0175     0.1989     0.0792     0.8317     2.3078   126.7200     0.7050     0.1608     0.6393
  398    7.940   2658.52     0.7251     0.0175     0.2104     0.0794     0.8118     2.4272   127.0400     0.6848     0.1855     0.6054
  399    7.960   2659.49     0.7405     0.0181     0.2261     0.0796     0.8335     2.4633   127.3600     0.7061     0.2009     0.6120
  400    7.980   2660.49     0.7383     0.0191     0.2446     0.0798     0.8377     2.5817   127.6800     0.7100     0.2210     0.6010
  401    8.000   2661.53     0.7248     0.0203     0.2635     0.0800     0.8334     2.7865   128.0000     0.7054     0.2532     0.5748
  402    8.020   2662.52     0.7150     0.0213     0.2752     0.0802     0.8288     2.9695   128.3200     0.7005     0.2722     0.5579
  403    8.040   2663.54     0.7028     0.0217     0.2918     0.0804     0.8228     3.0565   128.6400     0.6942     0.2958     0.5371
  404    8.060   2664.56     0.6857     0.0218     0.3049     0.0806     0.8120     3.1605   128.9600     0.6831     0.3222     0.5114
  405    8.080   2665.54     0.6737     0.0216     0.3154     0.0808     0.8051     3.1774   129.2800     0.6758     0.3434     0.4922
  406    8.100   2666.58     0.6793     0.0211     0.3308     0.0810     0.8151     3.1601   129.6000     0.6855     0.3536     0.4917
  407    8.120   2667.61     0.6775     0.0207     0.3454     0.0812     0.8212     3.0219   129.9200     0.6913     0.3774     0.4792
  408    8.140   2668.66     0.6723     0.0208     0.3608     0.0814     0.8227     3.0954   130.2400     0.6924     0.3996     0.4646
  409    8.160   2669.61     0.6592     0.0206     0.3642     0.0816     0.8114     3.1064   130.5600     0.6808     0.4125     0.4489
  410    8.180   2670.66     0.6524     0.0209     0.3782     0.0818     0.8100     3.1965   130.8800     0.6792     0.4323     0.4347
  411    8.200   2671.74     0.6411     0.0210     0.3820     0.0820     0.8007     3.2688   131.2000     0.6695     0.4451     0.4208
  412    8.220   2672.74     0.6414     0.0222     0.3916     0.0822     0.8041     3.4662   131.5200     0.6725     0.4537     0.4167
  413    8.240   2673.74     0.6361     0.0234     0.4000     0.0824     0.8039     3.6582   131.8400     0.6721     0.4718     0.4044
  414    8.260   2674.76     0.6272     0.0234     0.4090     0.0826     0.7980     3.7152   132.1600     0.6658     0.4865     0.3915
  415    8.280   2675.75     0.6185     0.0221     0.4203     0.0828     0.7932     3.5701   132.4800     0.6607     0.5040     0.3774
  416    8.300   2676.75     0.6214     0.0218     0.4317     0.0830     0.8010     3.5163   132.8000     0.6682     0.5156     0.3735
  417    8.320   2677.77     0.6221     0.0219     0.4402     0.0832     0.8065     3.5386   133.1200     0.6734     0.5287     0.3673
  418    8.340   2678.82     0.6420     0.0226     0.4548     0.0834     0.8306     3.5294   133.4400     0.6971     0.5243     0.3817
  419    8.360   2679.84     0.6428     0.0224     0.4547     0.0836     0.8344     3.4873   133.7600     0.7007     0.5319     0.3781
  420    8.380   2680.83     0.6471     0.0225     0.4449     0.0838     0.8359     3.4926   134.0800     0.7019     0.5212     0.3863
  421    8.400   2681.81     0.6488     0.0206     0.4510     0.0840     0.8373     3.1679   134.4000     0.7029     0.5191     0.3885
  422    8.420   2682.82     0.6303     0.0200     0.4608     0.0842     0.8210     3.1474   134.7200     0.6862     0.5389     0.3670
  423    8.440   2683.85     0.5946     0.0209     0.4685     0.0844     0.7911     3.4965   135.0400     0.6561     0.5844     0.3233
  424    8.460   2684.86     0.5784     0.0218     0.4766     0.0846     0.7772     3.7671   135.3600     0.6418     0.6056     0.3039
  425    8.480   2685.83     0.5612     0.0225     0.4783     0.0848     0.7627     4.0000   135.6800     0.6270     0.6298     0.2830
  426    8.500   2686.87     0.5484     0.0232     0.4770     0.0850     0.7490     4.2282   136.0000     0.6130     0.6404     0.2714
  427    8.520   2687.86     0.5544     0.0237     0.4772     0.0852     0.7545     4.3199   136.3200     0.6182     0.6329     0.2781
  428    8.540   2688.89     0.5762     0.0241     0.4872     0.0854     0.7797     4.1894   136.6400     0.6430     0.6206     0.2952
  429    8.560   2689.86     0.5983     0.0244     0.5050     0.0856     0.8082     4.1634   136.9600     0.6712     0.6171     0.3084
  430    8.580   2690.88     0.6205     0.0247     0.5284     0.0858     0.8395     4.0253   137.2800     0.7023     0.6204     0.3181
  431    8.600   2691.90     0.6230     0.0253     0.5435     0.0860     0.8492     4.0743   137.6000     0.7116     0.6360     0.3106
  432    8.620   2692.94     0.6308     0.0243     0.5542     0.0862     0.8623     3.8673   137.9200     0.7244     0.6420     0.3110
  433    8.640   2693.92     0.6391     0.0234     0.5592     0.0864     0.8734     3.6632   138.2400     0.7352     0.6413     0.3156
  434    8.660   2694.95     0.6509     0.0223     0.5672     0.0866     0.8875     3.4445   138.5600     0.7489     0.6366     0.3241
  435    8.680   2695.98     0.6446     0.0213     0.5723     0.0868     0.8842     3.3066   138.8800     0.7453     0.6488     0.3139
  436    8.700   2696.99     0.6378     0.0188     0.5786     0.0870     0.8804     2.9388   139.2000     0.7412     0.6620     0.3028
  437    8.720   2698.03     0.6444     0.0167     0.5829     0.0872     0.8881     2.6030   139.5200     0.7486     0.6587     0.3078
  438    8.740   2704.54     0.6561     0.0166     0.5822     0.0874     0.9014     2.5712   139.8400     0.7616     0.6530     0.3172
  439    8.760   2722.34     0.6873     0.0164     0.5764     0.0876     0.9302     2.5445   140.1600     0.7900     0.6223     0.3518
  440    8.780   2735.45     0.6804     0.0157     0.5554     0.0878     0.9196     2.2072   140.4800     0.7791     0.6187     0.3502
  441    8.800   2736.48     0.5543     0.0133     0.4653     0.0880     0.7635     2.3583   140.8000     0.6227     0.6591     0.2653
  442    8.820   2737.48     0.5169     0.0111     0.4166     0.0882     0.6934     2.1116   141.1200     0.5522     0.6009     0.2733
  443    8.840   2738.51     0.5043     0.0131     0.4331     0.0884     0.6834     2.5909   141.4400     0.5420     0.6242     0.2568
  444    8.860   2739.51     0.4980     0.0177     0.4534     0.0886     0.6851     3.5757   141.7600     0.5433     0.6567     0.2397
  445    8.880   2740.49     0.5286     0.0226     0.4805     0.0888     0.7263     4.2809   142.0800     0.5842     0.6536     0.2557
  446    8.900   2741.57     0.6677     0.0231     0.4923     0.0890     0.8723     3.5603   142.4000     0.7299     0.5473     0.3850
  447    8.920   2742.54     0.8919     0.0264     0.4869     0.0892     1.1019     3.2408   142.7200     0.9592     0.4292     0.6019
  448    8.940   2743.52     1.0364     0.0282     0.5259     0.0894     1.2448     2.7404   143.0400     1.1018     0.3692     0.7486
  449    8.960   2744.53     1.1005     0.0296     0.5741     0.0896     1.3373     2.7549   143.3600     1.1939     0.3972     0.7734
  450    8.980   2745.54     1.1042     0.0289     0.5390     0.0898     1.3285     2.6427   143.6800     1.1848     0.3747     0.7946
  451    9.000   2746.60     1.1845     0.0311     0.5361     0.0900     1.4175     2.6403   144.0000     1.2735     0.3650     0.8628
  452    9.020   2747.60     1.1721     0.0346     0.5836     0.0902     1.4077     2.9345   144.3200     1.2634     0.3726     0.8467
  453    9.040   2748.60     1.1814     0.0360     0.6193     0.0904     1.4407     3.0506   144.6400     1.2960     0.4066     0.8233
  454    9.060   2749.57     1.1655     0.0350     0.4917     0.0906     1.3952     2.9477   144.9600     1.2502     0.3647     0.8483
  455    9.080   2750.63     1.1061     0.0363     0.5064     0.0908     1.3099     3.1727   145.2800     1.1646     0.3387     0.8247
  456    9.100   2751.64     1.0470     0.0377     0.5641     0.0910     1.2778     3.5086   145.6000     1.1322     0.4052     0.7281
  457    9.120   2752.65     1.0712     0.0377     0.5848     0.0912     1.3106     3.5317   145.9200     1.1646     0.4111     0.7405
  458    9.140   2753.66     1.0611     0.0343     0.5882     0.0914     1.3077     3.2316   146.2400     1.1615     0.4268     0.7206
  459    9.160   2754.69     1.1035     0.0324     0.5764     0.0916     1.3481     3.0275   146.5600     1.2016     0.4084     0.7658
  460    9.180   2755.71     1.2039     0.0286     0.5779     0.0918     1.4463     2.3768   146.8800     1.2994     0.3735     0.8692
  461    9.200   2756.73     1.2261     0.0315     0.5843     0.0920     1.4674     2.5634   147.2000     1.3202     0.3654     0.8930
  462    9.220   2757.71     1.2285     0.0307     0.5638     0.0922     1.4721     2.5257   147.5200     1.3246     0.3684     0.8919
  463    9.240   2758.77     1.2658     0.0299     0.5601     0.0924     1.5070     2.3955   147.8400     1.3592     0.3546     0.9327
  464    9.260   2759.77     1.2795     0.0302     0.5538     0.0926     1.5109     2.3432   148.1600     1.3627     0.3366     0.9599
  465    9.280   2760.75     1.1823     0.0316     0.5851     0.0928     1.4209     2.6134   148.4800     1.2724     0.3735     0.8529
  466    9.300   2761.84     1.1155     0.0295     0.6407     0.0930     1.3762     2.6190   148.8000     1.2274     0.4301     0.7554
  467    9.320   2762.81     1.0781     0.0290     0.6446     0.0932     1.3479     2.6653   149.1200     1.1988     0.4581     0.7056
  468    9.340   2763.83     1.0556     0.0284     0.6710     0.0934     1.3350     2.6724   149.4400     1.1855     0.4823     0.6698
  469    9.360   2764.86     1.0771     0.0320     0.7098     0.0936     1.3667     3.0228   149.7600     1.2169     0.4896     0.6773
  470    9.380   2765.86     1.1843     0.0297     0.7465     0.0938     1.4936     2.6028   150.0800     1.3435     0.4786     0.7571
  471    9.400   2766.86     1.3363     0.0305     0.7120     0.0940     1.6452     2.4220   150.4000     1.4948     0.4296     0.9097
  472    9.420   2767.88     1.4525     0.0370     0.6440     0.0942     1.7245     2.5848   150.7200     1.5738     0.3518     1.0769
  473    9.440   2768.90     1.6173     0.0456     0.7007     0.0944     1.9099     2.9160   151.0400     1.7588     0.3429     1.2134
  474    9.460   2769.94     1.8795     0.0496     0.5366     0.0946     2.1491     2.7454   151.3600     1.9978     0.2746     1.5072
  475    9.480   2770.96     2.1348     0.0523     0.3448     0.0948     2.2889     2.4627   151.6800     2.1372     0.1273     1.9221
  476    9.500   2771.97     2.1849     0.0506     0.2213     0.0950     2.2890     2.3505   152.0000     2.1370     0.0712     2.0412
  477    9.520   2772.98     1.9640     0.0455     0.2993     0.0952     2.0735     2.1887   152.3200     1.9211     0.0865     1.8128
  478    9.540   2773.98     1.7896     0.0427     0.3891     0.0954     1.9433     2.3428   152.6400     1.7907     0.1513     1.5774
  479    9.560   2775.02     1.7449     0.0384     0.4177     0.0956     1.9193     2.1972   152.9600     1.7664     0.1810     1.5039
  480    9.580   2776.01     1.7812     0.0354     0.4658     0.0958     1.9687     2.0112   153.2800     1.8154     0.1929     1.5224
  481    9.600   2777.04     1.9460     0.0338     0.4472     0.0960     2.1505     1.8278   153.6000     1.9969     0.1957     1.6637
  482    9.620   2778.08     2.2114     0.0336     0.3074     0.0962     2.3576     1.5987   153.9200     2.2037     0.1145     2.0094
  483    9.640   2779.13     2.3050     0.0347     0.2931     0.0964     2.4213     1.4999   154.2400     2.2670     0.0796     2.1445
  484    9.660   2780.11     2.1405     0.0318     0.3387     0.0966     2.2767     1.4180   154.5600     2.1221     0.1073     1.9525
  485    9.680   2781.18     1.8678     0.0341     0.4061     0.0968     2.0275     1.8145   154.8800     1.8726     0.1514     1.6473
  486    9.700   2782.19     1.7338     0.0347     0.4465     0.0970     1.9197     1.9906   155.2000     1.7645     0.1958     1.4772
  487    9.720   2783.22     1.6385     0.0319     0.4637     0.0972     1.8278     1.8988   155.5200     1.6722     0.2113     1.3772
  488    9.740   2784.17     1.6015     0.0293     0.4638     0.0974     1.7989     1.8241   155.8400     1.6430     0.2267     1.3289
  489    9.760   2785.22     1.5962     0.0265     0.4455     0.0976     1.7836     1.6734   156.1600     1.6274     0.2142     1.3375
  490    9.780   2786.25     1.4589     0.0260     0.4699     0.0978     1.6506     1.7015   156.4800     1.4941     0.2402     1.1941
  491    9.800   2787.26     1.3164     0.0253     0.4996     0.0980     1.5264     1.8305   156.8000     1.3696     0.2937     1.0262
  492    9.820   2788.30     1.2672     0.0268     0.5422     0.0982     1.4892     2.1190   157.1200     1.3321     0.3230     0.9607
  493    9.840   2789.29     1.3158     0.0304     0.5646     0.0984     1.5498     2.3704   157.4400     1.3924     0.3295     0.9927
  494    9.860   2790.29     1.5038     0.0307     0.5560     0.0986     1.7340     2.2050   157.7600     1.5762     0.2851     1.1860
  495    9.880   2791.35     1.7142     0.0304     0.5353     0.0988     1.9406     1.8159   158.0800     1.7825     0.2471     1.4017
  496    9.900   2792.35     1.8882     0.0302     0.5337     0.0990     2.1141     1.6503   158.4000     1.9557     0.2245     1.5763
  497    9.920   2793.39     1.9413     0.0346     0.5351     0.0992     2.1629     1.7837   158.7200     2.0041     0.2138     1.6352
  498    9.940   2794.39     1.9496     0.0339     0.5009     0.0994     2.1678     1.7253   159.0400     2.0087     0.2091     1.6482
  499    9.960   2795.40     1.7458     0.0336     0.5264     0.0996     1.9565     1.9151   159.3600     1.7971     0.2243     1.4549
  500    9.980   2796.42     1.5915     0.0312     0.4510     0.0998     1.7928     1.9228   159.6800     1.6331     0.2320     1.3135
  501   10.000   2797.43     1.4266     0.0285     0.5363     0.1000     1.6366     1.8783   160.0000     1.4766     0.2716     1.1367
  502   10.020   2798.47     1.3256     0.0328     0.5841     0.1002     1.5685     2.4315   160.3200     1.4082     0.3396     0.9901
  503   10.040   2799.46     1.3201     0.0360     0.6041     0.1004     1.5696     2.7218   160.6400     1.4089     0.3504     0.9755
  504   10.060   2800.46     1.3654     0.0365     0.6474     0.1006     1.6303     2.7225   160.9600     1.4694     0.3607     0.9996
  505   10.080   2801.47     1.4199     0.0327     0.6264     0.1008     1.6885     2.3659   161.2800     1.5272     0.3529     1.0490
  506   10.100   2802.53     1.6014     0.0348     0.5885     0.1010     1.8488     2.2981   161.6000     1.6872     0.2896     1.2597
  507   10.120   2803.53     1.7958     0.0404     0.5865     0.1012     2.0415     2.3911   161.9200     1.8796     0.2577     1.4564
  508   10.140   2804.52     2.2680     0.0426     0.6014     0.1014     2.5177     2.0980   162.2400     2.3554     0.2101     1.9232
  509   10.160   2805.57     3.2115     0.0463     0.5316     0.1016     3.4626     1.6365   162.5600     3.3001     0.1512     2.8647
  510   10.180   2806.64     4.3795     0.0534     0.2070     0.1018     4.4973     1.3712   162.8800     4.3344     0.0417     4.2169
  511   10.200   2807.72     5.4704     0.0673     0.0422     0.1020     5.5060     1.3447   163.2000     5.3428    -0.0032     5.4214
  512   10.220   2808.72     6.1161     0.0663    -0.1014     0.1022     6.0842     1.1301   163.5200     5.9207    -0.0301     6.1600
  513   10.240   2809.75     6.1579     0.0724    -0.1300     0.1024     6.1103     1.1610   163.8400     5.9465    -0.0363     6.2235
  514   10.260   2810.80     5.4690     0.0825    -0.1487     0.1026     5.4167     1.4276   164.1600     5.2525    -0.0434     5.5414
  515   10.280   2811.79     4.6176     0.0879    -0.1704     0.1028     4.5507     1.7681   164.4800     4.3862    -0.0599     4.7100
  516   10.300   2812.83     4.0415     0.0942    -0.1749     0.1030     3.9688     2.1888   164.8000     3.8040    -0.0727     4.1419
  517   10.320   2813.87     3.4436     0.0977    -0.1764     0.1032     3.3639     2.7099   165.1200     3.1988    -0.0916     3.5537
  518   10.340   2814.91     2.7619     0.0832    -0.0131     0.1034     2.7327     2.8019   165.4400     2.5673    -0.0662     2.8023
  519   10.360   2815.94     2.1737     0.0639     0.0118     0.1036     2.1691     2.7603   165.7600     2.0034    -0.0569     2.1801
  520   10.380   2816.94     1.7892     0.0497     0.1230     0.1038     1.8199     2.6232   166.0800     1.6538    -0.0177     1.7469
  521   10.400   2817.94     1.5205     0.0384     0.2853     0.1040     1.6151     2.3547   166.4000     1.4487     0.0845     1.3898
  522   10.420   2818.96     1.4051     0.0335     0.3716     0.1042     1.5527     2.3330   166.7200     1.3859     0.1783     1.2013
  523   10.440   2819.97     1.3937     0.0374     0.4266     0.1044     1.5651     2.5955   167.0400     1.3980     0.2170     1.1572
  524   10.460   2821.02     1.4651     0.0440     0.4340     0.1046     1.6425     2.9577   167.3600     1.4751     0.2154     1.2202
  525   10.480   2822.05     1.5170     0.0505     0.4508     0.1048     1.7041     3.3199   167.6800     1.5364     0.2217     1.2588
  526   10.500   2823.10     1.6293     0.0606     0.4807     0.1050     1.8337     3.7577   168.0000     1.6657     0.2291     1.3470
  527   10.520   2824.04     1.7149     0.0610     0.4902     0.1052     1.9164     3.5928   168.3200     1.7481     0.2142     1.4367
  528   10.540   2831.07     1.8498     0.0551     0.4925     0.1054     2.0585     3.2604   168.6400     1.8899     0.2158     1.5616
  529   10.560   2847.97     2.2913     0.0539     0.4795     0.1056     2.4945     3.2037   168.9600     2.3256     0.1787     2.0106
  530   10.580   2864.88     2.7328     0.0622     0.4665     0.1058     2.9306     3.6981   169.2800     2.7613     0.1416     2.4596
  531   10.600   2876.58     3.2994     0.0830     0.3491     0.1060     3.4762     2.8421   169.6000     3.3066     0.0955     3.0554
  532   10.620   2877.62     4.6272     0.1062     0.4293     0.1062     4.7877     2.6989   169.9200     4.6178     0.0595     4.4056
  533   10.640   2878.67     5.7317     0.1073    -0.1013     0.1064     5.7441     1.9613   170.2400     5.5739    -0.0138     5.7147
  534   10.660   2879.64     4.7941     0.0994    -0.2287     0.1066     4.7093     1.9629   170.5600     4.5387    -0.0680     4.9113
  535   10.680   2880.74     3.5736     0.0894    -0.2391     0.1068     3.4713     2.1667   170.8800     3.3005    -0.1065     3.7148
  536   10.700   2881.68     2.7460     0.0861    -0.1387     0.1070     2.6608     2.8440   171.2000     2.4896    -0.1245     2.8637
  537   10.720   2882.75     2.0432     0.0773     0.1220     0.1072     2.0531     3.7287   171.5200     1.8816    -0.0437     2.0294
  538   10.740   2883.73     1.8059     0.0490     0.3075     0.1074     1.9150     2.5989   171.8400     1.7432     0.0875     1.6552
  539   10.760   2884.78     1.7701     0.0304     0.3580     0.1076     1.9141     1.7131   172.1600     1.7420     0.1351     1.5711
  540   10.780   2885.84     1.8178     0.0285     0.4057     0.1078     1.9826     1.5828   172.4800     1.8101     0.1572     1.5902
  541   10.800   2886.84     1.7813     0.0320     0.4279     0.1080     1.9599     1.7792   172.8000     1.7871     0.1776     1.5345
  542   10.820   2887.84     1.7960     0.0330     0.4471     0.1082     1.9788     1.8507   173.1200     1.8057     0.1810     1.5437
  543   10.840   2888.87     1.8655     0.0352     0.4675     0.1084     2.0620     1.9183   173.4400     1.8886     0.1903     1.5942
  544   10.860   2889.91     1.8914     0.0401     0.4164     0.1086     2.0749     2.1454   173.7600     1.9011     0.1728     1.6380
  545   10.880   2890.96     2.0462     0.0524     0.3947     0.1088     2.2045     2.6478   174.0800     2.0304     0.1321     1.8275
  546   10.900   2891.95     2.2352     0.0699     0.4787     0.1090     2.4276     3.2523   174.4000     2.2532     0.1548     1.9696
  547   10.920   2892.99     2.5225     0.0815     0.4303     0.1092     2.7123     3.4096   174.7200     2.5376     0.1355     2.2605
  548   10.940   2894.00     3.0800     0.0724     0.3175     0.1094     3.2347     2.5778   175.0400     3.0597     0.0853     2.8663
  549   10.960   2895.03     3.5567     0.0575     0.2178     0.1096     3.6641     1.7095   175.3600     3.4888     0.0421     3.4082
  550   10.980   2896.03     3.6355     0.0864     0.0761     0.1098     3.6849     2.4060   175.6800     3.5092     0.0022     3.5674
  551   11.000   2897.10     3.9211     0.1151     0.0239     0.1100     3.9330     3.0296   176.0000     3.7570    -0.0217     3.9046
  552   11.020   2898.10     4.3072     0.0993     0.1235     0.1102     4.3315     2.4137   176.3200     4.1552    -0.0127     4.2737
  553   11.040   2899.20     4.2878     0.1068    -0.0487     0.1104     4.3134     2.3692   176.6400     4.1367    -0.0120     4.2524
  554   11.060   2900.17     4.1539     0.1144    -0.0722     0.1106     4.1096     2.7243   176.9600     3.9327    -0.0550     4.2151
  555   11.080   2901.20     4.3287     0.1286    -0.0407     0.1108     4.2973     3.0265   177.2800     4.1200    -0.0451     4.3720
  556   11.100   2902.26     5.3028     0.1418    -0.0023     0.1110     5.3063     2.8859   177.6000     5.1287    -0.0200     5.2978
  557   11.120   2903.28     5.7518     0.1306    -0.2165     0.1112     5.6699     2.3261   177.9200     5.4920    -0.0558     5.8650
  558   11.140   2904.32     5.4670     0.0963    -0.2562     0.1114     5.3645     1.7003   178.2400     5.1863    -0.0686     5.6085
  559   11.160   2905.33     4.7568     0.0782    -0.2503     0.1116     4.6528     1.5563   178.5600     4.4743    -0.0804     4.9004
  560   11.180   2906.42     4.3628     0.0696    -0.2368     0.1118     4.2614     1.6025   178.8800     4.0825    -0.0866     4.5027
  561   11.200   2907.48     5.1948     0.0729    -0.2692     0.1120     5.0854     1.5667   179.2000     4.9062    -0.0761     5.3459
  562   11.220   2908.50     6.4988     0.0890    -0.2316     0.1122     6.3976     1.4718   179.5200     6.2181    -0.0570     6.6385
  563   11.240   2909.58     6.4356     0.1029    -0.2812     0.1124     6.3205     1.5489   179.8400     6.1407    -0.0629     6.5944
  564   11.260   2910.56     5.4568     0.1054    -0.2829     0.1126     5.3382     1.7843   180.1600     5.1580    -0.0767     5.6206
  565   11.280   2911.61     4.5082     0.1028    -0.2793     0.1128     4.3899     2.1343   180.4800     4.2095    -0.0938     4.6715
  566   11.300   2912.62     3.9508     0.1031    -0.2655     0.1130     3.8357     2.4631   180.8000     3.6549    -0.1059     4.1097
  567   11.320   2913.68     3.3681     0.0973    -0.2521     0.1132     3.2656     2.6524   181.1200     3.0844    -0.1159     3.5096
  568   11.340   2914.69     3.0249     0.0976    -0.2355     0.1134     2.9164     3.1040   181.4400     2.7349    -0.1359     3.1748
  569   11.360   2915.72     2.7671     0.0901    -0.1965     0.1136     2.6849     3.1521   181.7600     2.5031    -0.1236     2.8807
  570   11.380   2916.77     3.0375     0.0763    -0.1780     0.1138     2.9551     2.6974   182.0800     2.7731    -0.1119     3.1512
  571   11.400   2917.77     3.4172     0.0645    -0.1756     0.1140     3.3537     1.9873   182.4000     3.1713    -0.0836     3.5050
  572   11.420   2918.80     3.8263     0.0668    -0.1753     0.1142     3.7537     1.8255   182.7200     3.5710    -0.0804     3.9265
  573   11.440   2919.83     4.0643     0.0646    -0.1693     0.1144     3.9908     1.6115   183.0400     3.8078    -0.0760     4.1659
  574   11.460   2920.88     3.7366     0.0630    -0.1754     0.1146     3.6670     1.6413   183.3600     3.4836    -0.0806     3.8328
  575   11.480   2921.89     3.2530     0.0561    -0.1558     0.1148     3.1812     1.6254   183.6800     2.9976    -0.0953     3.3522
  576   11.500   2922.93     2.7591     0.0518    -0.0988     0.1150     2.7115     1.7501   184.0000     2.5275    -0.0903     2.8249
  577   11.520   2923.94     2.3733     0.0536     0.0043     0.1152     2.3490     2.1055   184.3200     2.1647    -0.0796     2.4069
  578   11.540   2924.97     2.4207     0.0474     0.1901     0.1154     2.4824     2.1101   184.6400     2.2977     0.0125     2.3356
  579   11.560   2926.03     3.2817     0.0708     0.1256     0.1156     3.3547     2.5190   184.9600     3.1697     0.0195     3.1809
  580   11.580   2927.04     4.9816     0.0803    -0.1163     0.1158     4.9749     1.8700   185.2800     4.7896    -0.0267     4.9910
  581   11.600   2928.06     5.2900     0.0861    -0.2189     0.1160     5.2033     1.5934   185.6000     5.0177    -0.0643     5.4097
  582   11.620   2929.10     4.4209     0.0868    -0.2292     0.1162     4.3249     1.7909   185.9200     4.1389    -0.0835     4.5536
  583   11.640   2930.13     3.5389     0.0917    -0.2401     0.1164     3.4366     2.3795   186.2400     3.2504    -0.1109     3.6801
  584   11.660   2931.19     2.9821     0.1013    -0.1918     0.1166     2.9050     3.2013   186.5600     2.7184    -0.1105     3.0887
  585   11.680   2932.21     3.0937     0.0915    -0.2079     0.1168     3.0045     3.1312   186.8800     2.8176    -0.1169     3.2169
  586   11.700   2933.23     3.1401     0.0756    -0.1715     0.1170     3.0743     2.3885   187.2000     2.8871    -0.0948     3.2310
  587   11.720   2934.25     2.8552     0.0578    -0.1805     0.1172     2.7805     1.9418   187.5200     2.5930    -0.1139     2.9584
  588   11.740   2935.28     2.4447     0.0545    -0.1007     0.1174     2.3892     2.1079   187.8400     2.2013    -0.1132     2.5213
  589   11.760   2936.34     2.0019     0.0548    -0.0377     0.1176     1.9719     2.4861   188.1600     1.7837    -0.1056     2.0434
  590   11.780   2937.36     1.7532     0.0529     0.2035     0.1178     1.8114     2.9325   188.4800     1.6230     0.0122     1.6728
  591   11.800   2938.37     1.9260     0.0476     0.2427     0.1180     2.0175     2.6215   188.8000     1.8287     0.0544     1.7996
  592   11.820   2939.39     2.0003     0.0464     0.2542     0.1182     2.1111     2.3235   189.1200     1.9220     0.0758     1.8472
  593   11.840   2940.41     1.9628     0.0540     0.2655     0.1184     2.0756     2.7132   189.4400     1.8861     0.0796     1.8070
  594   11.860   2941.44     1.9281     0.0563     0.2588     0.1186     2.0301     2.9760   189.7600     1.8403     0.0674     1.7873
  595   11.880   2942.47     2.2456     0.0668     0.3152     0.1188     2.3733     3.2094   190.0800     2.1832     0.0847     2.0693
  596   11.900   2943.51     2.8448     0.0700     0.3431     0.1190     2.9829     2.7008   190.4000     2.7925     0.0752     2.6541
  597   11.920   2944.55     4.2275     0.0749     0.3070     0.1192     4.3669     2.1044   190.7200     4.1762     0.0516     4.0351
  598   11.940   2945.58     6.0744     0.0699     0.2159     0.1194     6.2118     1.3101   191.0400     6.0208     0.0345     5.8846
  599   11.960   2946.62     6.8938     0.0701    -0.2097     0.1196     6.8444     1.0399   191.3600     6.6530    -0.0356     6.9620
  600   11.980   2947.68     6.7751     0.0721    -0.2548     0.1198     6.6689     1.0407   191.6800     6.4772    -0.0575     6.9217
  601   12.000   2948.73     6.5266     0.0880    -0.2540     0.1200     6.4220     1.3227   192.0000     6.2300    -0.0593     6.6711
  602   12.020   2949.72     6.1739     0.1105    -0.2640     0.1202     6.0680     1.7337   192.3200     5.8757    -0.0634     6.3202
  603   12.040   2950.75     5.2502     0.1220    -0.2757     0.1204     5.1347     2.1446   192.6400     4.9421    -0.0802     5.4098
  604   12.060   2951.78     4.1474     0.0992    -0.2728     0.1206     4.0323     2.1532   192.9600     3.8393    -0.1031     4.3065
  605   12.080   2952.80     3.2906     0.0799    -0.2587     0.1208     3.1790     2.1807   193.2800     2.9857    -0.1299     3.4447
  606   12.100   2953.81     2.5408     0.0654    -0.2144     0.1210     2.4407     2.2940   193.6000     2.2471    -0.1601     2.6791
  607   12.120   2954.86     1.9803     0.0491    -0.1645     0.1212     1.9068     2.2204   193.9200     1.7129    -0.1734     2.0817
  608   12.140   2955.88     1.6470     0.0405    -0.0314     0.1214     1.6085     2.3272   194.2400     1.4143    -0.1502     1.7002
  609   12.160   2956.94     1.6262     0.0392     0.1666     0.1216     1.6752     2.4741   194.5600     1.4807    -0.0044     1.5586
  610   12.180   2957.93     1.8763     0.0362     0.2002     0.1218     1.9619     2.0738   194.8800     1.7670     0.0466     1.7581
  611   12.200   2958.96     1.9686     0.0346     0.1520     0.1220     2.0394     1.7369   195.2000     1.8442     0.0247     1.8709
  612   12.220   2960.00     1.8307     0.0350     0.2281     0.1222     1.9138     1.8582   195.5200     1.7183     0.0442     1.7159
  613   12.240   2961.05     1.6900     0.0339     0.3032     0.1224     1.8112     1.9199   195.8400     1.6154     0.1030     1.5227
  614   12.260   2962.06     1.5684     0.0281     0.3441     0.1226     1.7060     1.7369   196.1600     1.5098     0.1359     1.3784
  615   12.280   2963.09     1.4977     0.0275     0.3514     0.1228     1.6457     1.8097   196.4800     1.4492     0.1583     1.2935
  616   12.300   2964.09     1.5141     0.0357     0.3715     0.1230     1.6643     2.3703   196.8000     1.4675     0.1599     1.3067
  617   12.320   2965.11     1.6274     0.0518     0.4275     0.1232     1.7982     3.3677   197.1200     1.6010     0.1770     1.3916
  618   12.340   2966.16     2.2037     0.0659     0.4182     0.1234     2.3927     3.4536   197.4400     2.1953     0.1488     1.9428
  619   12.360   2967.22     2.9444     0.0699     0.2961     0.1236     3.1017     2.6234   197.7600     2.9040     0.0865     2.7271
  620   12.380   2968.25     3.4919     0.0829     0.0648     0.1238     3.5364     2.4947   198.0800     3.3383    -0.0053     3.4306
  621   12.400   2969.26     3.7552     0.0920     0.0797     0.1240     3.7717     2.5200   198.4000     3.5733    -0.0239     3.7325
  622   12.420   2970.32     4.1498     0.1078     0.2162     0.1242     4.2206     2.7314   198.7200     4.0219     0.0107     4.0521
  623   12.440   2971.33     5.1446     0.1231     0.2914     0.1244     5.2662     2.5620   199.0400     5.0672     0.0326     4.9767
  624   12.460   2972.37     6.3902     0.1195    -0.1139     0.1246     6.3973     1.9711   199.3600     6.1979    -0.0167     6.3804
  625   12.480   2973.43     7.5194     0.1159    -0.2138     0.1248     7.4328     1.5936   199.6800     7.2331    -0.0458     7.6391
  626   12.500   2974.49     8.1662     0.1135    -0.2296     0.1250     8.0714     1.4147   200.0000     7.8714    -0.0446     8.2970
  627   12.520   2975.52     8.6090     0.1234    -0.2362     0.1252     8.5099     1.4578   200.3200     8.3096    -0.0435     8.7458
  628   12.540   2976.62     9.4857     0.1187    -0.2343     0.1254     9.3897     1.3026   200.6400     9.1890    -0.0385     9.6182
  629   12.560   2977.66    10.5705     0.0999    -0.2543     0.1256    10.4700     1.0043   200.9600    10.2691    -0.0355    10.7093
  630   12.580   2978.73    11.9741     0.0777    -0.2857     0.1258    11.8562     0.6930   201.2800    11.6549    -0.0349    12.1370
  631   12.600   2979.78    13.4902     0.0653    -0.2854     0.1260    13.3710     0.4962   201.6000    13.1694    -0.0311    13.6548
  632   12.620   2980.84    15.1271     0.0713    -0.2640     0.1262    15.0120     0.4901   201.9200    14.8100    -0.0271    15.2862
  633   12.640   2981.87    16.9899     0.0837    -0.2255     0.1264    16.8888     0.5121   202.2400    16.6866    -0.0220    17.1296
  634   12.660   2985.69    18.5128     0.1076    -0.2130     0.1266    18.4172     0.5961   202.5600    18.2146    -0.0195    18.6449
  635   12.680   3002.68    19.4149     0.1356    -0.1704     0.1268    19.3371     0.7387   202.8800    19.1343    -0.0165    19.5223
  636   12.700   3019.19    20.2930     0.1585    -0.1425     0.1270    20.2326     0.8207   203.2000    20.0294    -0.0135    20.3763
  637   12.720   3020.14    20.2235     0.1771    -0.1594     0.1272    20.1583     0.8738   203.5200    19.9548    -0.0142    20.3135
  638   12.740   3021.14    19.6978     0.1891    -0.1862     0.1274    19.6228     0.9529   203.8400    19.4189    -0.0158    19.8015
  639   12.760   3022.08    18.8078     0.1884    -0.1664     0.1276    18.7359     0.9950   204.1600    18.5317    -0.0161    18.9072
  640   12.780   3023.08    17.4542     0.1836    -0.1544     0.1278    17.3858     1.0466   204.4800    17.1813    -0.0169    17.5486
  641   12.800   3024.04    15.9695     0.1754    -0.1299     0.1280    15.9119     1.0480   204.8000    15.7071    -0.0169    16.0490
  642   12.820   3025.04    14.4495     0.1661    -0.1160     0.1282    14.3979     1.1016   205.1200    14.1928    -0.0177    14.5208
  643   12.840   3026.07    13.0928     0.1534    -0.0966     0.1284    13.0509     1.1302   205.4400    12.8455    -0.0178    13.1507
  644   12.860   3027.05    11.9473     0.1367    -0.0786     0.1286    11.9093     1.1033   205.7600    11.7036    -0.0187    11.9997
  645   12.880   3028.10    10.9830     0.1187    -0.0603     0.1288    10.9550     1.0505   206.0800    10.7489    -0.0182    11.0217
  646   12.900   3029.16    10.3433     0.1100    -0.0458     0.1290    10.3190     1.0399   206.4000    10.1126    -0.0185    10.3768
  647   12.920   3030.21     9.9776     0.1044    -0.0296     0.1292     9.9622     1.0327   206.7200     9.7555    -0.0170     9.9988
  648   12.940   3031.24     9.8927     0.0923    -0.0277     0.1294     9.8821     0.9314   207.0400     9.6751    -0.0160     9.9072
  649   12.960   3032.26     9.9601     0.0799    -0.0564     0.1296     9.9401     0.8053   207.3600     9.7327    -0.0182     9.9878
  650   12.980   3033.32    10.0892     0.0741    -0.0926     0.1298    10.0564     0.7399   207.6800     9.8487    -0.0211    10.1345
  651   13.000   3034.38    10.3456     0.0719    -0.1743     0.1300    10.2813     0.7013   208.0000    10.0733    -0.0281    10.4342
  652   13.020   3035.37    10.5339     0.0723    -0.2442     0.1302    10.4368     0.6901   208.3200    10.2285    -0.0353    10.6680
  653   13.040   3036.42    10.6833     0.0714    -0.2302     0.1304    10.5891     0.6706   208.6400    10.3804    -0.0342    10.8134
  654   13.060   3037.50    10.6821     0.0834    -0.2658     0.1306    10.5736     0.7790   208.9600    10.3646    -0.0375    10.8319
  655   13.080   3038.51    10.3629     0.1156    -0.2726     0.1308    10.2477     1.1024   209.2800    10.0385    -0.0403    10.5218
  656   13.100   3039.57    10.2351     0.1283    -0.2614     0.1310    10.1227     1.2504   209.6000     9.9131    -0.0402    10.3904
  657   13.120   3040.65    10.3367     0.1114    -0.2342     0.1312    10.2366     1.0839   209.9200    10.0267    -0.0369    10.4749
  658   13.140   3041.67    10.5471     0.0991    -0.2457     0.1314    10.4508     0.9462   210.2400    10.2406    -0.0352    10.6801
  659   13.160   3042.76    10.6223     0.0842    -0.2769     0.1316    10.5085     0.7927   210.5600    10.2979    -0.0391    10.7795
  660   13.180   3043.75    10.5932     0.0752    -0.2800     0.1318    10.4753     0.7097   210.8800    10.2644    -0.0402    10.7561
  661   13.200   3044.83    10.6341     0.0674    -0.2674     0.1320    10.5199     0.6353   211.2000    10.3087    -0.0392    10.7918
  662   13.220   3045.89    10.6526     0.0723    -0.2654     0.1322    10.5427     0.6786   211.5200    10.3312    -0.0381    10.8043
  663   13.240   3046.94    10.4494     0.0613    -0.2764     0.1324    10.3339     0.5813   211.8400    10.1220    -0.0403    10.6090
  664   13.260   3047.98    10.3084     0.0554    -0.2773     0.1326    10.1926     0.5348   212.1600     9.9804    -0.0409    10.4683
  665   13.280   3049.03    10.2461     0.0487    -0.2803     0.1328    10.1288     0.4752   212.4800     9.9164    -0.0415    10.4080
  666   13.300   3050.06    10.2425     0.0431    -0.2882     0.1330    10.1233     0.4199   212.8000     9.9105    -0.0421    10.4072
  667   13.320   3051.09    10.0384     0.0475    -0.2922     0.1332     9.9143     0.4667   213.1200     9.7012    -0.0442    10.2097
  668   13.340   3052.12     9.4641     0.0532    -0.2880     0.1334     9.3433     0.5476   213.4400     9.1299    -0.0461     9.6310
  669   13.360   3053.17     8.8616     0.0692    -0.2862     0.1336     8.7418     0.7628   213.7600     8.5280    -0.0491     9.0270
  670   13.380   3054.19     8.3426     0.0883    -0.2824     0.1338     8.2238     1.0356   214.0800     8.0097    -0.0520     8.5068
  671   13.400   3055.23     7.8889     0.0893    -0.2801     0.1340     7.7700     1.1126   214.4000     7.5556    -0.0552     8.0532
  672   13.420   3056.28     7.6739     0.0725    -0.2782     0.1342     7.5569     0.9395   214.7200     7.3422    -0.0562     7.8354
  673   13.440   3057.30     7.7854     0.0625    -0.2696     0.1344     7.6707     0.8148   215.0400     7.4556    -0.0547     7.9439
  674   13.460   3058.38     8.5101     0.0561    -0.2554     0.1346     8.4010     0.6811   215.3600     8.1856    -0.0482     8.6608
  675   13.480   3059.42     9.6026     0.0546    -0.2471     0.1348     9.4969     0.5867   215.6800     9.2813    -0.0417     9.7484
  676   13.500   3060.50    10.7131     0.0517    -0.2429     0.1350    10.6124     0.4992   216.0000    10.3964    -0.0360    10.8520
  677   13.520   3061.55    11.5670     0.0419    -0.2539     0.1352    11.4621     0.3699   216.3200    11.2458    -0.0342    11.7120
  678   13.540   3062.61    12.1858     0.0369    -0.2628     0.1354    12.0759     0.3067   216.6400    11.8593    -0.0335    12.3376
  679   13.560   3063.66    12.3145     0.0410    -0.2702     0.1356    12.2022     0.3321   216.9600    11.9853    -0.0336    12.4696
  680   13.580   3064.69    12.0550     0.0484    -0.2737     0.1358    11.9396     0.3970   217.2800    11.7223    -0.0350    12.2142
  681   13.600   3065.66    11.7520     0.0516    -0.2708     0.1360    11.6369     0.4360   217.6000    11.4193    -0.0359    11.9110
  682   13.620   3066.76    11.6574     0.0601    -0.2646     0.1362    11.5452     0.5142   217.9200    11.3273    -0.0356    11.8124
  683   13.640   3067.85    11.5427     0.0689    -0.2611     0.1364    11.4320     0.5950   218.2400    11.2138    -0.0357    11.6955
  684   13.660   3068.89    11.4734     0.0697    -0.2578     0.1366    11.3647     0.6070   218.5600    11.1462    -0.0355    11.6235
  685   13.680   3069.91    11.4321     0.0685    -0.2627     0.1368    11.3227     0.5983   218.8800    11.1038    -0.0358    11.5832
  686   13.700   3070.95    11.4943     0.0654    -0.2613     0.1370    11.3843     0.5706   219.2000    11.1651    -0.0357    11.6462
  687   13.720   3072.04    11.6732     0.0587    -0.2568     0.1372    11.5653     0.5041   219.5200    11.3458    -0.0347    11.8223
  688   13.740   3073.11    11.7802     0.0522    -0.2538     0.1374    11.6719     0.4434   219.8400    11.4521    -0.0345    11.9298
  689   13.760   3074.15    11.6841     0.0589    -0.2554     0.1376    11.5766     0.5011   220.1600    11.3564    -0.0347    11.8326
  690   13.780   3075.20    11.4312     0.0750    -0.2544     0.1378    11.3230     0.6526   220.4800    11.1025    -0.0356    11.5806
  691   13.800   3076.23    11.3625     0.0885    -0.2562     0.1380    11.2562     0.7777   220.8000    11.0354    -0.0355    11.5094
  692   13.820   3077.33    11.5489     0.0945    -0.2525     0.1382    11.4425     0.8275   221.1200    11.2213    -0.0349    11.6958
  693   13.840   3078.39    12.1827     0.0978    -0.2478     0.1384    12.0785     0.8232   221.4400    11.8570    -0.0326    12.3267
  694   13.860   3079.42    13.1702     0.0903    -0.2467     0.1386    13.0663     0.7034   221.7600    12.8445    -0.0301    13.3138
  695   13.880   3080.48    14.3341     0.0790    -0.2384     0.1388    14.2325     0.5565   222.0800    14.0105    -0.0272    14.4743
  696   13.900   3081.52    15.5841     0.0733    -0.2271     0.1390    15.4882     0.4751   222.4000    15.2658    -0.0241    15.7165
  697   13.920   3082.59    16.7389     0.0756    -0.2174     0.1392    16.6447     0.4575   222.7200    16.4219    -0.0222    16.8691
  698   13.940   3083.56    17.8267     0.0871    -0.2189     0.1394    17.7356     0.4941   223.0400    17.5126    -0.0203    17.9524
  699   13.960   3084.54    18.5861     0.1052    -0.2180     0.1396    18.4943     0.5692   223.3600    18.2709    -0.0196    18.7128
  700   13.980   3085.50    19.0938     0.1227    -0.2210     0.1398    19.0035     0.6458   223.6800    18.7798    -0.0189    19.2185
  701   14.000   3086.50    19.3778     0.1425    -0.2415     0.1400    19.2775     0.7376   224.0000    19.0535    -0.0199    19.5164
  702   14.020   3087.48    19.5561     0.1598    -0.2432     0.1402    19.4541     0.8181   224.3200    19.2298    -0.0199    19.6969
  703   14.040   3088.48    19.6782     0.1736    -0.2454     0.1404    19.5755     0.8830   224.6400    19.3509    -0.0199    19.8200
  704   14.060   3089.46    19.7398     0.1801    -0.2451     0.1406    19.6367     0.9125   224.9600    19.4118    -0.0199    19.8821
  705   14.080   3090.47    19.6621     0.1870    -0.2394     0.1408    19.5605     0.9501   225.2800    19.3352    -0.0198    19.8024
  706   14.100   3091.41    19.4409     0.1906    -0.2274     0.1410    19.3440     0.9780   225.6000    19.1184    -0.0194    19.5747
  707   14.120   3092.40    19.1022     0.1915    -0.2191     0.1412    19.0086     1.0009   225.9200    18.7827    -0.0194    19.2313
  708   14.140   3093.39    18.6263     0.1830    -0.2106     0.1414    18.5365     0.9807   226.2400    18.3102    -0.0194    18.7504
  709   14.160   3094.39    18.0841     0.1749    -0.1972     0.1416    17.9986     0.9605   226.5600    17.7721    -0.0194    18.2021
  710   14.180   3095.40    17.5303     0.1659    -0.1843     0.1418    17.4509     0.9415   226.8800    17.2241    -0.0192    17.6399
  711   14.200   3096.36    17.0117     0.1592    -0.1734     0.1420    16.9373     0.9320   227.2000    16.7101    -0.0191    17.1145
  712   14.220   3097.36    16.4479     0.1539    -0.1494     0.1422    16.3804     0.9278   227.5200    16.1529    -0.0187    16.5411
  713   14.240   3098.42    15.8293     0.1458    -0.1329     0.1424    15.7720     0.9132   227.8400    15.5442    -0.0179    15.9085
  714   14.260   3099.35    15.1972     0.1395    -0.1136     0.1426    15.1452     0.9108   228.1600    14.9171    -0.0179    15.2690
  715   14.280   3100.32    14.5116     0.1342    -0.0978     0.1428    14.4673     0.9029   228.4800    14.2388    -0.0174    14.5727
  716   14.300   3101.31    13.8777     0.1320    -0.0846     0.1430    13.8409     0.9319   228.8000    13.6121    -0.0169    13.9284
  717   14.320   3102.29    13.3248     0.1319    -0.0766     0.1432    13.2929     0.9748   229.1200    13.0638    -0.0168    13.3689
  718   14.340   3103.31    12.7573     0.1301    -0.0415     0.1434    12.7341     1.0032   229.4400    12.5046    -0.0159    12.7893
  719   14.360   3104.35    12.1841     0.1235    -0.0251     0.1436    12.1713     0.9974   229.7600    11.9415    -0.0146    12.2019
  720   14.380   3105.41    11.7306     0.1137    -0.0071     0.1438    11.7248     0.9584   230.0800    11.4947    -0.0137    11.7387
  721   14.400   3106.47    11.4478     0.1034    -0.0040     0.1440    11.4445     0.8965   230.4000    11.2141    -0.0135    11.4524
  722   14.420   3107.51    11.2418     0.0922     0.0228     0.1442    11.2486     0.8151   230.7200    11.0179    -0.0116    11.2323
  723   14.440   3108.53    10.9757     0.0855     0.0218     0.1444    10.9848     0.7729   231.0400    10.7538    -0.0114    10.9631
  724   14.460   3109.56    10.7262     0.0804     0.0204     0.1446    10.7350     0.7421   231.3600    10.5036    -0.0118    10.7141
  725   14.480   3110.61    10.4982     0.0720     0.0098     0.1448    10.5036     0.6833   231.6800    10.2720    -0.0128    10.4907
  726   14.500   3111.68    10.4173     0.0628    -0.0178     0.1450    10.4137     0.6016   232.0000    10.1817    -0.0151    10.4223
  727   14.520   3112.74    10.4579     0.0571    -0.0283     0.1452    10.4480     0.5464   232.3200    10.2157    -0.0165    10.4716
  728   14.540   3113.79    10.5301     0.0505    -0.0394     0.1454    10.5139     0.4805   232.6400    10.2812    -0.0179    10.5526
  729   14.560   3114.82    10.5912     0.0439    -0.0609     0.1456    10.5675     0.4146   232.9600    10.3345    -0.0195    10.6239
  730   14.580   3115.85    10.4670     0.0431    -0.1350     0.1458    10.4214     0.4099   233.2800    10.1881    -0.0250    10.5301
  731   14.600   3116.94    10.0503     0.0593    -0.1493     0.1460     9.9888     0.5806   233.6000     9.7552    -0.0300    10.1352
  732   14.620   3121.61     9.2849     0.0688    -0.1254     0.1462     9.2189     0.7260   233.9200     8.9850    -0.0332     9.3760
  733   14.640   3138.50     8.4493     0.0834    -0.0336     0.1464     8.4219     0.8794   234.2400     8.1876    -0.0241     8.4872
  734   14.660   3155.39     7.6137     0.1045     0.0581     0.1466     7.6248     1.1020   234.5600     7.3902    -0.0149     7.5984
  735   14.680   3166.14     6.7372     0.0934     0.0923     0.1468     6.7768     1.3417   234.8800     6.5419    -0.0080     6.6825
  736   14.700   3167.21     6.2299     0.0924     0.1151     0.1470     6.2729     1.4648   235.2000     6.0377    -0.0074     6.1705
  737   14.720   3168.24     7.3311     0.0808     0.1512     0.1472     7.3768     1.1649   235.5200     7.1413    -0.0054     7.2679
  738   14.740   3169.33     9.1843     0.0805     0.2233     0.1474     9.2524     0.9561   235.8400     9.0166     0.0014     9.0902
  739   14.760   3170.39    11.3169     0.0790     0.0352     0.1476    11.3518     0.7577   236.1600    11.1156    -0.0057    11.2688
  740   14.780   3171.45    13.2768     0.0740    -0.0849     0.1478    13.2431     0.5847   236.4800    13.0066    -0.0175    13.3234
  741   14.800   3172.51    15.3846     0.0605    -0.1192     0.1480    15.3391     0.3973   236.8000    15.1023    -0.0169    15.4474
  742   14.820   3173.55    17.8987     0.0678    -0.1394     0.1482    17.8509     0.3850   237.1200    17.6138    -0.0149    17.9648
  743   14.840   3174.54    20.4634     0.0750    -0.2177     0.1484    20.3788     0.3701   237.4400    20.1413    -0.0174    20.5803
  744   14.860   3175.56    23.0521     0.0704    -0.2613     0.1486    22.9460     0.3129   237.7600    22.7082    -0.0177    23.1987
  745   14.880   3176.56    25.0854     0.0613    -0.2557     0.1488    24.9761     0.2484   238.0800    24.7380    -0.0165    25.2364
  746   14.900   3177.54    26.8267     0.0597    -0.2219     0.1490    26.7297     0.2296   238.4000    26.4913    -0.0144    26.9607
  747   14.920   3178.55    28.4675     0.0657    -0.1826     0.1492    28.3872     0.2378   238.7200    28.1485    -0.0121    28.5784
  748   14.940   3179.58    30.5335     0.0807    -0.1728     0.1494    30.4539     0.2728   239.0400    30.2149    -0.0112    30.6434
  749   14.960   3180.65    32.9037     0.0871    -0.1585     0.1496    32.8414     0.2672   239.3600    32.6021    -0.0091    32.9898
  750   14.980   3181.65    35.2817     0.0892    -0.1399     0.1498    35.2249     0.2546   239.6800    34.9852    -0.0081    35.3601
  751   15.000   3182.68    36.9774     0.0950    -0.1934     0.1500    36.9064     0.2627   240.0000    36.6664    -0.0087    37.0754
  752   15.020   3183.71    37.8926     0.1025    -0.2610     0.1502    37.7891     0.2715   240.3200    37.5488    -0.0106    38.0354
  753   15.040   3184.66    38.2988     0.1079    -0.2648     0.1504    38.1888     0.2832   240.6400    37.9482    -0.0109    38.4507
  754   15.060   3185.71    39.0254     0.1028    -0.2165     0.1506    38.9341     0.2641   240.9600    38.6931    -0.0095    39.1515
  755   15.080   3186.66    38.5911     0.0902    -0.2046     0.1508    38.5026     0.2324   241.2800    38.2613    -0.0094    38.7132
  756   15.100   3187.76    37.7095     0.0911    -0.1698     0.1510    37.6329     0.2414   241.6000    37.3913    -0.0089    37.8153
  757   15.120   3188.76    36.9558     0.0953    -0.1639     0.1512    36.8857     0.2553   241.9200    36.6438    -0.0087    37.0527
  758   15.140   3189.77    36.4684     0.1002    -0.1636     0.1514    36.4040     0.2734   242.2400    36.1617    -0.0084    36.5575
  759   15.160   3190.78    36.4117     0.1058    -0.1265     0.1516    36.3541     0.2899   242.5600    36.1116    -0.0080    36.4913
  760   15.180   3191.79    36.4622     0.1115    -0.0699     0.1518    36.4231     0.3062   242.8800    36.1802    -0.0068    36.5162
  761   15.200   3192.82    36.9934     0.0980    -0.0484     0.1520    36.9739     0.2664   243.2000    36.7307    -0.0054    37.0204
  762   15.220   3193.88    38.6025     0.0850    -0.0459     0.1522    38.5956     0.2237   243.5200    38.3520    -0.0044    38.6121
  763   15.240   3194.93    40.3259     0.0745    -0.1425     0.1524    40.2785     0.1868   243.8400    40.0347    -0.0066    40.3914
  764   15.260   3195.98    41.6566     0.0575    -0.2100     0.1526    41.5733     0.1391   244.1600    41.3291    -0.0085    41.7717
  765   15.280   3197.04    43.0142     0.0457    -0.2043     0.1528    42.9250     0.1069   244.4800    42.6805    -0.0086    43.1375
  766   15.300   3198.10    44.6937     0.0418    -0.1775     0.1530    44.6133     0.0940   244.8000    44.3685    -0.0078    44.8046
  767   15.320   3199.20    45.6935               -0.1598     0.1532    45.6233              245.1200    45.3782    -0.0071    45.7905
  768   15.340   3200.24    46.1574               -0.1387     0.1534    46.1004              245.4400    45.8549    -0.0063    46.2361
  769   15.360   3201.35    46.5423               -0.1289     0.1536    46.4890              245.7600    46.2432    -0.0061    46.6161
  770   15.380   3202.49    46.8708               -0.1486     0.1538    46.8141              246.0800    46.5681    -0.0062    46.9490
  771   15.400   3203.50    47.3556               -0.1616     0.1540    47.2916              246.4000    47.0452    -0.0065    47.4441
  772   15.420   3204.59    47.6737                           0.1542    47.5965              246.7200    47.3498    -0.0071    47.7803
 
 
