

 Program UNIPLOT                         version 05.36.02
 _______________
 (c) Fugro Netherlands Marine, Nootdorp, The Netherlands


 ASCII representation of data plotted on a graph.

 This ASCII file presents data interpolated to values per fixed depth interval.
 The data are corrected for the depth-offset differences between the various 
 transducers in the penetrometer.

 The records at the start of penetration may include no values or anomalous
 values where a depth offset implies incomplete penetration of a particular
 sensor into the ground.

 The records at the end of penetration may include no values for data channels
 where the transducer did not reach this depth.

 The reference level for test values is (1) the ground surface for onshore tests and (2) the seafloor for nearshore and offshore tests.

 UNICAS data file          : CPT-2021.000                            
 Output using command file : PlotASCII.cmd

 ASCII file created at : date          :23-Mar-2022
                         time          :11:54:00
 Project number                        :20024805
 Date of testing                       :22-Mar-2022
 Location                              :Hong Kong Offshore Wind Farm Project
 Test name                             :CPT-2021
 Penetrometer                          :F7.5CKE2HAW2/B/3342
 Serial no                             :1701-3342

 Table description:
 Column ID                             :Parameter name
 ___________________________________________________________________________________
 Rec                                   :Record ID, Record ID [-]
 Depth                                 :Depth, Depth [m]
 Time                                  :Time, Time [s]
 Cone                                  :Cone Resistance, Cone Resistance [MPa]
 Friction                              :Sleeve Friction, Sleeve Friction [MPa]
 Pore 2                                :Porewater Pressure, Porewater Pressure at Shoulder [MPa]
 HydroPress                            :Hydrostatic Pressure, Hydrostatic Pressure [MPa]
 qt                                    :Total Cone Resistance, Total Cone Resistance [MPa]
 Fric_ratio                            :Friction Ratio, Friction Ratio [%]
 SigmaVert                             :Vertical stress, Vertical stress [kPa] as specified in ground model
 Qnet                                  :Net Cone Resistance, Net Cone Resistance [MPa], unit weight as specified in ground model
 Bq                                    :Porewater Pressure Ratio, Porewater Pressure Ratio [-], unit weight as specified in ground model


 Data table:
  Rec    Depth      Time       Cone   Friction     Pore 2 HydroPress         qt Fric_ratio  SigmaVert       Qnet         Bq
   No        m         s        MPa        MPa        MPa        MPa        MPa          %        kPa        MPa          -
    1    0.000   2431.50     0.0000                           0.0000     0.0000                0.0000     0.0000           
    2    0.020   2432.55     0.0030               -0.0024     0.0002     0.0022                0.3200     0.0019    -1.1224
    3    0.040   2433.64     0.0066               -0.0068     0.0004     0.0047                0.6400     0.0041    -1.2279
    4    0.060   2460.04     0.0464     0.0024    -0.0136     0.0006     0.0417    37.6167     0.9600     0.0407    -0.8209
    5    0.080   2486.43     0.0863     0.0031    -0.0205     0.0008     0.0787    49.3211     1.2800     0.0774    -0.4139
    6    0.100   2498.56     0.1574     0.0029    -0.0226     0.0010     0.1476     2.6023     1.6000     0.1460    -0.1664
    7    0.120   2499.55     0.1803     0.0034    -0.0080     0.0012     0.1756     2.1159     1.9200     0.1736    -0.0714
    8    0.140   2502.26     0.0260     0.0039    -0.0009     0.0014     0.0256    17.2954     2.2400     0.0233    -0.1309
    9    0.160   2505.65     0.0413     0.0041    -0.0015     0.0016     0.0405     9.7277     2.5600     0.0380    -0.0917
   10    0.180   2506.66     0.0616     0.0039    -0.0049     0.0018     0.0590     8.9767     2.8800     0.0562    -0.1424
   11    0.200   2507.69     0.0370     0.0028    -0.0027     0.0020     0.0351     5.4563     3.2000     0.0319    -0.2093
   12    0.220   2508.76     0.0302     0.0028    -0.0036     0.0022     0.0294     9.4615     3.5200     0.0259    -0.1684
   13    0.240   2509.76     0.0359     0.0028    -0.0119     0.0024     0.0311     7.6227     3.8400     0.0272    -0.5183
   14    0.260   2510.78     0.0214     0.0030    -0.0094     0.0026     0.0170    13.6900     4.1600     0.0128    -1.0515
   15    0.280   2511.77     0.0168     0.0031    -0.0049     0.0028     0.0142    18.7025     4.4800     0.0098    -0.9136
   16    0.300   2512.81     0.0201     0.0029     0.0000     0.0030     0.0195    14.3867     4.8000     0.0147    -0.2940
   17    0.320   2513.80     0.0250     0.0028     0.0001     0.0032     0.0251    11.8119     5.1200     0.0200    -0.1405
   18    0.340   2514.81     0.0288     0.0026    -0.0015     0.0034     0.0285     8.9698     5.4400     0.0230    -0.1824
   19    0.360   2515.79     0.0197     0.0026    -0.0007     0.0036     0.0192    14.2716     5.7600     0.0134    -0.3829
   20    0.380   2516.79     0.0168     0.0026    -0.0015     0.0038     0.0167    15.0882     6.0800     0.0106    -0.4249
   21    0.400   2517.82     0.0112     0.0025    -0.0058     0.0040     0.0086    21.8586     6.4000     0.0022   -20.8872
   22    0.420   2518.85     0.0095     0.0024     0.0055     0.0042     0.0109    26.5147     6.7200     0.0041    -0.7076
   23    0.440   2519.83     0.0124     0.0025     0.0069     0.0044     0.0152    21.2035     7.0400     0.0082     0.2996
   24    0.460   2520.81     0.0168     0.0025     0.0072     0.0046     0.0199    14.7402     7.3600     0.0125     0.2267
   25    0.480   2521.83     0.0188     0.0029     0.0057     0.0048     0.0213    15.4021     7.6800     0.0136     0.0801
   26    0.500   2522.89     0.0167     0.0028     0.0047     0.0050     0.0191    16.6019     8.0000     0.0111     0.0737
   27    0.520   2523.86     0.0154     0.0030     0.0026     0.0052     0.0166    19.3272     8.3200     0.0083    -0.2955
   28    0.540   2524.84     0.0175     0.0031     0.0022     0.0054     0.0190    18.6621     8.6400     0.0103    -0.1811
   29    0.560   2525.85     0.0166     0.0032     0.0054     0.0056     0.0179    19.9312     8.9600     0.0089    -0.3060
   30    0.580   2526.85     0.0161     0.0032     0.0047     0.0058     0.0185    21.6636     9.2800     0.0092    -0.0174
   31    0.600   2527.85     0.0143     0.0031     0.0023     0.0060     0.0146    23.3961     9.6000     0.0050    -1.4115
   32    0.620   2528.91     0.0124     0.0030     0.0051     0.0062     0.0142    24.4366     9.9200     0.0042    -0.4980
   33    0.640   2529.94     0.0112     0.0030     0.0091     0.0064     0.0144    27.1544    10.2400     0.0042     0.3292
   34    0.660   2530.90     0.0123     0.0028     0.0126     0.0066     0.0172    22.6330    10.5600     0.0067     0.7777
   35    0.680   2533.80     0.0138     0.0027     0.0139     0.0068     0.0195    21.7574    10.8800     0.0086     0.7947
   36    0.700   2536.91     0.0155     0.0029     0.0153     0.0070     0.0218    23.7707    11.2000     0.0106     0.7563
   37    0.720   2540.02     0.0173     0.0033     0.0168     0.0072     0.0240    22.1441    11.5200     0.0125     0.7178
   38    0.740   2541.38     0.0179     0.0035     0.0183     0.0074     0.0254    19.4393    11.8400     0.0136     0.7790
   39    0.760   2542.34     0.0197     0.0034     0.0198     0.0076     0.0276    17.3814    12.1600     0.0155     0.7366
   40    0.780   2543.37     0.0255     0.0041     0.0207     0.0078     0.0344    16.6965    12.4800     0.0219     0.6211
   41    0.800   2544.35     0.0578     0.0040     0.0177     0.0080     0.0657     7.6897    12.8000     0.0529     0.2183
   42    0.820   2545.40     0.1291     0.0040     0.0095     0.0082     0.1349     3.4148    13.1200     0.1217     0.0471
   43    0.840   2546.40     0.1742     0.0037     0.0021     0.0084     0.1754     2.1455    13.4400     0.1620    -0.0335
   44    0.860   2547.36     0.1446     0.0040    -0.0003     0.0086     0.1466     2.6360    13.7600     0.1329    -0.0268
   45    0.880   2548.39     0.1356     0.0040     0.0020     0.0088     0.1353     2.9758    14.0800     0.1212    -0.0797
   46    0.900   2549.38     0.1118     0.0037     0.0082     0.0090     0.1146     3.2610    14.4000     0.1002    -0.0224
   47    0.920   2550.34     0.0903     0.0029     0.0119     0.0092     0.0953     3.1433    14.7200     0.0806     0.0370
   48    0.940   2551.35     0.0835     0.0029     0.0166     0.0094     0.0888     3.4130    15.0400     0.0738     0.0474
   49    0.960   2552.39     0.1146     0.0035     0.0182     0.0096     0.1221     3.3248    15.3600     0.1067     0.0800
   50    0.980   2553.39     0.1291     0.0039     0.0173     0.0098     0.1376     2.9988    15.6800     0.1219     0.0841
   51    1.000   2554.40     0.1218     0.0040     0.0094     0.0100     0.1262     3.2304    16.0000     0.1102     0.0033
   52    1.020   2555.41     0.1032     0.0040     0.0075     0.0102     0.1060     3.6568    16.3200     0.0897    -0.0398
   53    1.040   2556.38     0.0815     0.0038     0.0109     0.0104     0.0851     4.4502    16.6400     0.0685    -0.0272
   54    1.060   2557.37     0.0605     0.0038     0.0172     0.0106     0.0662     5.3942    16.9600     0.0492     0.0587
   55    1.080   2558.35     0.0455     0.0037     0.0306     0.0108     0.0565     7.6088    17.2800     0.0393     0.3950
   56    1.100   2559.44     0.0435     0.0033     0.0268     0.0110     0.0538     7.9617    17.6000     0.0362     0.3719
   57    1.120   2560.36     0.0427     0.0033     0.0319     0.0112     0.0557     7.3083    17.9200     0.0378     0.5248
   58    1.140   2561.19     0.0403     0.0036     0.0305     0.0114     0.0537     8.4723    18.2400     0.0355     0.5821
   59    1.160   2561.99     0.0376     0.0036     0.0329     0.0116     0.0511     9.4744    18.5600     0.0325     0.6312
   60    1.180   2563.02     0.0359     0.0038     0.0346     0.0118     0.0503    10.6435    18.8800     0.0314     0.7182
   61    1.200   2563.98     0.0451     0.0040     0.0365     0.0120     0.0601    10.3765    19.2000     0.0409     0.5771
   62    1.220   2564.98     0.0563     0.0040     0.0397     0.0122     0.0729     7.1913    19.5200     0.0534     0.5127
   63    1.240   2566.01     0.0595     0.0041     0.0313     0.0124     0.0760     6.9359    19.8400     0.0562     0.4801
   64    1.260   2567.01     0.0573     0.0036     0.0384     0.0126     0.0712     6.1338    20.1600     0.0510     0.4014
   65    1.280   2568.07     0.0568     0.0033     0.0426     0.0128     0.0743     5.7406    20.4800     0.0538     0.5360
   66    1.300   2569.07     0.0546     0.0032     0.0465     0.0130     0.0734     5.8112    20.8000     0.0526     0.6063
   67    1.320   2570.06     0.0548     0.0032     0.0509     0.0132     0.0755     5.8219    21.1200     0.0544     0.6663
   68    1.340   2571.09     0.0532     0.0030     0.0549     0.0134     0.0758     5.6870    21.4400     0.0544     0.7422
   69    1.360   2572.06     0.0551     0.0029     0.0548     0.0136     0.0783     5.3515    21.7600     0.0566     0.7370
   70    1.380   2573.11     0.0574     0.0034     0.0548     0.0138     0.0803     5.8665    22.0800     0.0582     0.6984
   71    1.400   2574.11     0.0598     0.0035     0.0552     0.0140     0.0829     5.8876    22.4000     0.0605     0.6761
   72    1.420   2575.10     0.0651     0.0036     0.0551     0.0142     0.0884     5.5647    22.7200     0.0657     0.6283
   73    1.440   2576.11     0.0686     0.0035     0.0543     0.0144     0.0916     5.2190    23.0400     0.0686     0.5892
   74    1.460   2577.08     0.0746     0.0034     0.0335     0.0146     0.0908     4.4909    23.3600     0.0675     0.3571
   75    1.480   2578.15     0.0663     0.0034     0.0420     0.0148     0.0812     4.9607    23.6800     0.0575     0.3619
   76    1.500   2579.12     0.0633     0.0035     0.0521     0.0150     0.0822     5.5870    24.0000     0.0582     0.5108
   77    1.520   2580.11     0.0632     0.0038     0.0551     0.0152     0.0863     5.9753    24.3200     0.0619     0.6406
   78    1.540   2581.15     0.0650     0.0037     0.0542     0.0154     0.0883     5.7190    24.6400     0.0637     0.6292
   79    1.560   2582.11     0.0665     0.0036     0.0546     0.0156     0.0894     5.4219    24.9600     0.0644     0.6046
   80    1.580   2583.15     0.0681     0.0034     0.0561     0.0158     0.0916     5.0855    25.2800     0.0663     0.6038
   81    1.600   2584.14     0.0673     0.0035     0.0571     0.0160     0.0912     5.1740    25.6000     0.0656     0.6243
   82    1.620   2585.15     0.0665     0.0034     0.0602     0.0162     0.0915     5.1615    25.9200     0.0656     0.6606
   83    1.640   2586.11     0.0650     0.0034     0.0639     0.0164     0.0913     5.1806    26.2400     0.0651     0.7100
   84    1.660   2587.06     0.0660     0.0033     0.0645     0.0166     0.0933     5.0038    26.5600     0.0667     0.7230
   85    1.680   2588.05     0.0678     0.0033     0.0653     0.0168     0.0950     4.8621    26.8800     0.0681     0.7034
   86    1.700   2589.18     0.0706     0.0033     0.0658     0.0170     0.0981     4.7205    27.2000     0.0709     0.6843
   87    1.720   2590.24     0.0725     0.0035     0.0630     0.0172     0.0994     4.8406    27.5200     0.0719     0.6501
   88    1.740   2591.20     0.0760     0.0037     0.0600     0.0174     0.1019     4.8464    27.8400     0.0741     0.5978
   89    1.760   2592.46     0.0796     0.0037     0.0589     0.0176     0.1045     4.6750    28.1600     0.0763     0.5443
   90    1.780   2595.49     0.0830     0.0037     0.0581     0.0178     0.1075     4.6922    28.4800     0.0791     0.5157
   91    1.800   2598.53     0.0864     0.0037     0.0574     0.0180     0.1106     4.5882    28.8000     0.0818     0.4871
   92    1.820   2601.53     0.0896     0.0039     0.0578     0.0182     0.1136     4.6044    29.1200     0.0845     0.4600
   93    1.840   2602.53     0.0888     0.0041     0.0576     0.0184     0.1131     4.6205    29.4400     0.0837     0.4717
   94    1.860   2603.54     0.0885     0.0044     0.0605     0.0186     0.1137     4.9544    29.7600     0.0839     0.4918
   95    1.880   2604.59     0.0858     0.0044     0.0635     0.0188     0.1123     5.1349    30.0800     0.0822     0.5390
   96    1.900   2607.37     0.0894     0.0042     0.0609     0.0190     0.1154     4.7300    30.4000     0.0850     0.5044
   97    1.920   2629.84     0.0952     0.0040     0.0584     0.0192     0.1201     4.3072    30.7200     0.0894     0.4525
   98    1.940   2652.31     0.1010     0.0046     0.0559     0.0194     0.1248     4.6235    31.0400     0.0938     0.4007
   99    1.960   2662.11     0.1008     0.0049     0.0602     0.0196     0.1249     4.8160    31.3600     0.0935     0.4033
  100    1.980   2663.16     0.0967     0.0049     0.0624     0.0198     0.1235     5.0673    31.6800     0.0918     0.4800
  101    2.000   2664.19     0.0947     0.0048     0.0629     0.0200     0.1215     5.0350    32.0000     0.0895     0.4903
  102    2.020   2675.78     0.0731     0.0048     0.0673     0.0202     0.1017     6.2160    32.3200     0.0694     0.6968
  103    2.040   2704.96     0.0814     0.0045     0.0645     0.0204     0.1089     6.3621    32.6400     0.0763     0.6010
  104    2.060   2731.07     0.0889     0.0043     0.0667     0.0206     0.1158     5.5077    32.9600     0.0828     0.5228
  105    2.080   2731.73     0.0907     0.0044     0.0718     0.0208     0.1203     4.8829    33.2800     0.0871     0.5710
  106    2.100   2732.38     0.0975     0.0043     0.0740     0.0210     0.1282     4.7450    33.6000     0.0946     0.5521
  107    2.120   2733.05     0.1034     0.0044     0.0767     0.0212     0.1353     4.4241    33.9200     0.1013     0.5385
  108    2.140   2733.83     0.1062     0.0046     0.0702     0.0214     0.1371     4.3143    34.2400     0.1029     0.5072
  109    2.160   2734.49     0.1091     0.0039     0.0657     0.0216     0.1362     3.5764    34.5600     0.1017     0.4238
  110    2.180   2735.10     0.1081     0.0048     0.0677     0.0218     0.1365     4.3954    34.8800     0.1016     0.4508
  111    2.200   2735.71     0.1072     0.0051     0.0640     0.0220     0.1350     4.7610    35.2000     0.0998     0.4417
  112    2.220   2736.31     0.1067     0.0046     0.0661     0.0222     0.1339     4.3662    35.5200     0.0984     0.4334
  113    2.240   2736.93     0.1028     0.0041     0.0712     0.0224     0.1323     3.9715    35.8400     0.0965     0.4955
  114    2.260   2737.64     0.1280     0.0045     0.0706     0.0226     0.1580     4.4292    36.1600     0.1218     0.4381
  115    2.280   2738.35     0.1450     0.0065     0.0682     0.0228     0.1737     3.6200    36.4800     0.1372     0.3454
  116    2.300   2741.87     0.1368     0.0078     0.0622     0.0230     0.1651     6.4019    36.8000     0.1283     0.3959
  117    2.320   2756.76     0.2251     0.0097     0.0468     0.0232     0.2470     8.1295    37.1200     0.2098     0.2587
  118    2.340   2771.64     0.3134     0.0075     0.0315     0.0234     0.3288     6.2914    37.4400     0.2914     0.1214
  119    2.360   2785.08     0.3938     0.0077     0.0294     0.0236     0.4041     5.0304    37.7600     0.3664     0.0025
  120    2.380   2786.15     0.4856     0.0074     0.0182     0.0238     0.4929     1.5831    38.0800     0.4548    -0.0146
  121    2.400   2787.29     0.4323     0.0074     0.0261     0.0240     0.4437     1.7870    38.4000     0.4053     0.0082
  122    2.420   2788.22     0.3917     0.0074     0.0337     0.0242     0.4047     1.8532    38.7200     0.3660     0.0193
  123    2.440   2789.16     0.3307     0.0078     0.0336     0.0244     0.3419     2.3161    39.0400     0.3029     0.0083
  124    2.460   2790.23     0.2779     0.0074     0.0373     0.0246     0.2930     2.4506    39.3600     0.2536     0.0443
  125    2.480   2791.23     0.2138     0.0063     0.0418     0.0248     0.2313     2.9133    39.6800     0.1916     0.0883
  126    2.500   2792.28     0.1625     0.0057     0.0520     0.0250     0.1827     3.4033    40.0000     0.1427     0.1624
  127    2.520   2793.22     0.1372     0.0051     0.0642     0.0252     0.1627     3.6254    40.3200     0.1223     0.2908
  128    2.540   2794.22     0.1293     0.0051     0.0714     0.0254     0.1592     3.9464    40.6400     0.1185     0.3849
  129    2.560   2795.38     0.1338     0.0052     0.0716     0.0256     0.1637     3.8767    40.9600     0.1227     0.3711
  130    2.580   2796.33     0.1357     0.0055     0.0768     0.0258     0.1671     4.1413    41.2800     0.1259     0.3893
  131    2.600   2797.26     0.1622     0.0054     0.0772     0.0260     0.1949     3.7876    41.6000     0.1533     0.3417
  132    2.620   2798.20     0.2174     0.0053     0.0723     0.0262     0.2486     2.8183    41.9200     0.2067     0.2344
  133    2.640   2799.16     0.2909     0.0047     0.0566     0.0264     0.3183     1.7702    42.2400     0.2761     0.1421
  134    2.660   2800.33     0.4107     0.0045     0.0505     0.0266     0.4321     1.2863    42.5600     0.3895     0.0630
  135    2.680   2801.44     0.5216     0.0046     0.0474     0.0268     0.5414     0.8856    42.8800     0.4985     0.0407
  136    2.700   2802.43     0.6346     0.0044     0.0403     0.0270     0.6525     0.6978    43.2000     0.6093     0.0259
  137    2.720   2803.37     0.6650     0.0047     0.0374     0.0272     0.6816     0.7223    43.5200     0.6381     0.0195
  138    2.740   2804.46     0.6612     0.0041     0.0361     0.0274     0.6761     0.6260    43.8400     0.6323     0.0127
  139    2.760   2805.42     0.6372     0.0035     0.0312     0.0276     0.6493     0.5361    44.1600     0.6051     0.0021
  140    2.780   2806.52     0.6219     0.0035     0.0417     0.0278     0.6388     0.5587    44.4800     0.5944     0.0212
  141    2.800   2807.45     0.5800     0.0040     0.0433     0.0280     0.5988     0.6744    44.8000     0.5540     0.0301
  142    2.820   2808.45     0.5517     0.0046     0.0439     0.0282     0.5681     0.8313    45.1200     0.5230     0.0208
  143    2.840   2809.57     0.5275     0.0060     0.0452     0.0284     0.5477     1.1184    45.4400     0.5023     0.0392
  144    2.860   2810.53     0.5125     0.0053     0.0401     0.0286     0.5296     1.0512    45.7600     0.4838     0.0253
  145    2.880   2811.54     0.5401     0.0050     0.0514     0.0288     0.5628     0.9356    46.0800     0.5167     0.0488
  146    2.900   2812.52     0.5968     0.0062     0.0597     0.0290     0.6206     1.1319    46.4000     0.5742     0.0482
  147    2.920   2813.46     0.6587     0.0077     0.0510     0.0292     0.6821     1.2179    46.7200     0.6354     0.0420
  148    2.940   2814.59     0.7419     0.0081     0.0407     0.0294     0.7597     1.0912    47.0400     0.7127     0.0183
  149    2.960   2815.68     0.7387     0.0073     0.0493     0.0296     0.7567     0.9866    47.3600     0.7094     0.0188
  150    2.980   2816.60     0.7506     0.0058     0.0514     0.0298     0.7708     0.7796    47.6800     0.7232     0.0253
  151    3.000   2817.56     0.7700     0.0048     0.0459     0.0300     0.7921     0.6338    48.0000     0.7441     0.0303
  152    3.020   2818.60     0.7820     0.0037     0.0436     0.0302     0.7993     0.4665    48.3200     0.7509     0.0145
  153    3.040   2819.58     0.7819     0.0031     0.0492     0.0304     0.8007     0.3976    48.6400     0.7520     0.0190
  154    3.060   2820.56     0.7227     0.0030     0.0465     0.0306     0.7415     0.4104    48.9600     0.6926     0.0207
  155    3.080   2821.60     0.6661     0.0030     0.0487     0.0308     0.6862     0.4438    49.2800     0.6369     0.0266
  156    3.100   2822.67     0.6338     0.0031     0.0436     0.0310     0.6546     0.4950    49.6000     0.6050     0.0307
  157    3.120   2823.65     0.5830     0.0037     0.0512     0.0312     0.6004     0.6020    49.9200     0.5505     0.0192
  158    3.140   2824.70     0.4869     0.0040     0.0636     0.0314     0.5126     0.7751    50.2400     0.4623     0.0643
  159    3.160   2825.62     0.4327     0.0045     0.0674     0.0316     0.4613     0.9820    50.5600     0.4107     0.0888
  160    3.180   2826.58     0.4061     0.0044     0.0647     0.0318     0.4346     1.0652    50.8800     0.3838     0.0939
  161    3.200   2827.57     0.3664     0.0042     0.0700     0.0320     0.3951     1.1530    51.2000     0.3439     0.1057
  162    3.220   2828.75     0.3689     0.0042     0.0577     0.0322     0.3942     1.1826    51.5200     0.3426     0.0819
  163    3.240   2829.87     0.4334     0.0034     0.0514     0.0324     0.4559     0.8187    51.8400     0.4041     0.0529
  164    3.260   2830.75     0.4858     0.0029     0.0567     0.0326     0.5092     0.6332    52.1600     0.4571     0.0505
  165    3.280   2831.77     0.5182     0.0029     0.0495     0.0328     0.5390     0.5590    52.4800     0.4865     0.0341
  166    3.300   2832.69     0.5110     0.0039     0.0506     0.0330     0.5315     0.7706    52.8000     0.4787     0.0333
  167    3.320   2833.67     0.5297     0.0037     0.0568     0.0332     0.5523     0.7171    53.1200     0.4992     0.0414
  168    3.340   2834.75     0.5836     0.0029     0.0458     0.0334     0.6045     0.5045    53.4400     0.5510     0.0294
  169    3.360   2835.84     0.5818     0.0028     0.0494     0.0336     0.5996     0.4698    53.7600     0.5458     0.0160
  170    3.380   2836.86     0.4944     0.0024     0.0540     0.0338     0.5174     0.4490    54.0800     0.4633     0.0447
  171    3.400   2837.83     0.3830     0.0033     0.0578     0.0340     0.4064     0.8528    54.4000     0.3520     0.0619
  172    3.420   2838.83     0.3260     0.0051     0.0656     0.0342     0.3527     1.5644    54.7200     0.2980     0.0987
  173    3.440   2839.77     0.3367     0.0056     0.0990     0.0344     0.3721     1.7012    55.0400     0.3171     0.1562
  174    3.460   2840.79     0.3875     0.0054     0.1020     0.0346     0.4329     1.5234    55.3600     0.3776     0.1956
  175    3.480   2841.87     0.4965     0.0053     0.0771     0.0348     0.5307     1.1094    55.6800     0.4750     0.0996
  176    3.500   2842.85     0.5512     0.0053     0.0728     0.0350     0.5815     0.9664    56.0000     0.5255     0.0706
  177    3.520   2843.82     0.5468     0.0085     0.0716     0.0352     0.5798     1.5397    56.3200     0.5235     0.0830
  178    3.540   2844.91     0.5434     0.0103     0.0646     0.0354     0.5685     1.9030    56.6400     0.5118     0.0476
  179    3.560   2845.98     0.5997     0.0098     0.0623     0.0356     0.6299     1.7238    56.9600     0.5730     0.0635
  180    3.580   2846.94     0.6083     0.0079     0.0572     0.0358     0.6325     1.3015    57.2800     0.5752     0.0379
  181    3.600   2847.94     0.6270     0.0079     0.0542     0.0360     0.6521     1.2617    57.6000     0.5945     0.0398
  182    3.620   2848.95     0.6132     0.0079     0.0490     0.0362     0.6355     1.2895    57.9200     0.5776     0.0294
  183    3.640   2849.87     0.6091     0.0074     0.0440     0.0364     0.6278     1.2120    58.2400     0.5695     0.0141
  184    3.660   2850.84     0.5291     0.0069     0.0341     0.0366     0.5459     1.2991    58.5600     0.4873     0.0066
  185    3.680   2851.89     0.4481     0.0068     0.0158     0.0368     0.4557     1.4991    58.8800     0.3968    -0.0477
  186    3.700   2853.02     0.3700     0.0066     0.0308     0.0370     0.3838     1.6278    59.2000     0.3246    -0.0131
  187    3.720   2854.02     0.3180     0.0067     0.0527     0.0372     0.3358     1.9970    59.5200     0.2763     0.0188
  188    3.740   2854.97     0.3055     0.0073     0.0606     0.0374     0.3307     2.3939    59.8400     0.2709     0.0839
  189    3.760   2855.90     0.3268     0.0081     0.0653     0.0376     0.3539     2.4854    60.1600     0.2938     0.0923
  190    3.780   2856.87     0.3322     0.0087     0.0636     0.0378     0.3591     2.6706    60.4800     0.2986     0.0881
  191    3.800   2858.12     0.3309     0.0100     0.0815     0.0380     0.3615     3.1170    60.8000     0.3007     0.1162
  192    3.820   2859.17     0.3188     0.0113     0.0869     0.0382     0.3551     3.5635    61.1200     0.2940     0.1643
  193    3.840   2860.12     0.3155     0.0116     0.0659     0.0384     0.3469     3.6089    61.4400     0.2855     0.1274
  194    3.860   2861.13     0.2886     0.0110     0.0681     0.0386     0.3183     3.7188    61.7600     0.2565     0.1252
  195    3.880   2863.71     0.2459     0.0103     0.0647     0.0388     0.2729     4.0589    62.0800     0.2108     0.1213
  196    3.900   2882.26     0.2263     0.0098     0.0659     0.0390     0.2538     3.9429    62.4000     0.1914     0.1419
  197    3.920   2900.81     0.2067     0.0091     0.0671     0.0392     0.2347     3.6591    62.7200     0.1719     0.1625
  198    3.940   2911.41     0.2092     0.0105     0.0731     0.0394     0.2390     5.3606    63.0400     0.1759     0.1785
  199    3.960   2912.54     0.2234     0.0108     0.0790     0.0396     0.2559     4.8646    63.3600     0.1926     0.1964
  200    3.980   2913.48     0.2665     0.0106     0.0806     0.0398     0.3002     4.0641    63.6800     0.2365     0.1710
  201    4.000   2914.52     0.3580     0.0101     0.0861     0.0400     0.3925     2.9455    64.0000     0.3285     0.1287
  202    4.020   2915.56     0.5308     0.0104     0.0671     0.0402     0.5632     1.9614    64.3200     0.4989     0.0741
  203    4.040   2916.52     0.5084     0.0098     0.0609     0.0404     0.5360     1.7859    64.6400     0.4714     0.0537
  204    4.060   2917.52     0.4128     0.0102     0.1017     0.0406     0.4489     2.4470    64.9600     0.3840     0.1181
  205    4.080   2918.52     0.3628     0.0095     0.1339     0.0408     0.4141     2.6211    65.2800     0.3488     0.2336
  206    4.100   2919.51     0.3559     0.0097     0.1056     0.0410     0.4103     2.7197    65.6000     0.3447     0.2567
  207    4.120   2920.57     0.3218     0.0087     0.1328     0.0412     0.3739     2.5673    65.9200     0.3080     0.2695
  208    4.140   2921.67     0.3198     0.0078     0.1225     0.0414     0.3716     2.4586    66.2400     0.3054     0.2680
  209    4.160   2922.67     0.2995     0.0077     0.1396     0.0416     0.3588     2.5389    66.5600     0.2923     0.3412
  210    4.180   2923.64     0.2997     0.0078     0.1422     0.0418     0.3565     2.6017    66.8800     0.2897     0.3224
  211    4.200   2924.55     0.3038     0.0084     0.1586     0.0420     0.3685     2.7726    67.2000     0.3013     0.3714
  212    4.220   2925.60     0.3097     0.0095     0.1666     0.0422     0.3796     3.0656    67.5200     0.3121     0.3982
  213    4.240   2926.73     0.3150     0.0093     0.1527     0.0424     0.3813     2.9783    67.8400     0.3134     0.3680
  214    4.260   2927.76     0.3316     0.0100     0.1571     0.0426     0.3963     3.0251    68.1600     0.3282     0.3399
  215    4.280   2928.70     0.3521     0.0106     0.1565     0.0428     0.4184     3.0749    68.4800     0.3499     0.3290
  216    4.300   2929.64     0.3669     0.0111     0.1609     0.0430     0.4345     3.0055    68.8000     0.3657     0.3225
  217    4.320   2930.75     0.3586     0.0117     0.1628     0.0432     0.4261     3.2584    69.1200     0.3570     0.3294
  218    4.340   2931.78     0.3645     0.0122     0.1577     0.0434     0.4310     3.3714    69.4400     0.3615     0.3176
  219    4.360   2932.74     0.3742     0.0125     0.1732     0.0436     0.4437     3.3367    69.7600     0.3740     0.3259
  220    4.380   2933.68     0.3776     0.0126     0.1863     0.0438     0.4545     3.3390    70.0800     0.3844     0.3619
  221    4.400   2934.81     0.3928     0.0132     0.1938     0.0440     0.4728     3.3681    70.4000     0.4024     0.3642
  222    4.420   2935.84     0.3925     0.0136     0.2056     0.0442     0.4766     3.4551    70.7200     0.4059     0.3845
  223    4.440   2936.85     0.3837     0.0139     0.2112     0.0444     0.4717     3.6135    71.0400     0.4007     0.4123
  224    4.460   2937.79     0.3843     0.0144     0.2144     0.0446     0.4742     3.7572    71.3600     0.4028     0.4208
  225    4.480   2938.72     0.3919     0.0155     0.2203     0.0448     0.4832     3.9683    71.6800     0.4115     0.4193
  226    4.500   2939.80     0.3941     0.0176     0.2281     0.0450     0.4891     4.4797    72.0000     0.4171     0.4346
  227    4.520   2940.92     0.3975     0.0190     0.2275     0.0452     0.4921     4.8067    72.3200     0.4198     0.4293
  228    4.540   2941.84     0.3969     0.0203     0.2299     0.0454     0.4937     5.1092    72.6400     0.4210     0.4393
  229    4.560   2942.79     0.3966     0.0206     0.2215     0.0456     0.4910     5.1628    72.9600     0.4180     0.4283
  230    4.580   2943.78     0.3848     0.0196     0.2202     0.0458     0.4779     5.0767    73.2800     0.4046     0.4345
  231    4.600   2944.94     0.4501     0.0199     0.2027     0.0460     0.5379     4.5549    73.6000     0.4643     0.3516
  232    4.620   2945.92     0.4906     0.0218     0.1765     0.0462     0.5667     4.5139    73.9200     0.4928     0.2741
  233    4.640   2946.85     0.5422     0.0260     0.1548     0.0464     0.6113     5.0012    74.2400     0.5371     0.2200
  234    4.660   2947.85     0.5989     0.0312     0.1229     0.0466     0.6552     5.3402    74.5600     0.5806     0.1507
  235    4.680   2948.91     0.6755     0.0325     0.0781     0.0468     0.7188     5.3896    74.8800     0.6440     0.0882
  236    4.700   2949.95     0.6477     0.0329     0.0372     0.0470     0.6712     4.7788    75.2000     0.5960     0.0149
  237    4.720   2951.00     0.6279     0.0358    -0.0032     0.0472     0.6198     5.6961    75.5200     0.5443    -0.1220
  238    4.740   2952.00     0.5853     0.0336    -0.0208     0.0474     0.5891     5.6253    75.8400     0.5133    -0.0746
  239    4.760   2952.98     0.6238     0.0333    -0.0249     0.0476     0.6152     5.3753    76.1600     0.5391    -0.1265
  240    4.780   2954.06     1.0649     0.0303    -0.0334     0.0478     1.0461     4.0933    76.4800     0.9696    -0.0957
  241    4.800   2955.06     0.9948     0.0281    -0.0266     0.0480     0.9749     2.8009    76.8000     0.8981    -0.1060
  242    4.820   2956.02     0.8477     0.0252    -0.0182     0.0482     0.8473     2.8254    77.1200     0.7702    -0.0639
  243    4.840   2957.01     0.7741     0.0232    -0.0302     0.0484     0.7577     2.9807    77.4400     0.6803    -0.1283
  244    4.860   2958.01     0.6400     0.0200     0.0320     0.0486     0.6508     3.1207    77.7600     0.5730    -0.0402
  245    4.880   2959.17     0.5467     0.0188     0.0604     0.0488     0.5686     3.3229    78.0800     0.4905     0.0076
  246    4.900   2960.15     0.4310     0.0166     0.0959     0.0490     0.4596     3.7219    78.4000     0.3812     0.0518
  247    4.920   2961.13     0.3729     0.0152     0.1460     0.0492     0.4287     4.0580    78.7200     0.3499     0.2395
  248    4.940   2962.09     0.3353     0.0131     0.1703     0.0494     0.4041     3.7113    79.0400     0.3251     0.3523
  249    4.960   2963.15     0.3306     0.0119     0.1876     0.0496     0.4059     3.5934    79.3600     0.3265     0.3965
  250    4.980   2964.13     0.3493     0.0108     0.1934     0.0498     0.4312     3.2233    79.6800     0.3515     0.4136
  251    5.000   2965.23     0.3628     0.0108     0.2050     0.0500     0.4508     2.9608    80.0000     0.3708     0.4302
  252    5.020   2966.20     0.3394     0.0106     0.2256     0.0502     0.4289     3.0931    80.3200     0.3485     0.4674
  253    5.040   2967.18     0.3593     0.0104     0.2402     0.0504     0.4585     2.9838    80.6400     0.3779     0.4926
  254    5.060   2968.23     0.4317     0.0105     0.2728     0.0506     0.5434     2.6809    80.9600     0.4624     0.4665
  255    5.080   2969.27     0.5086     0.0115     0.2892     0.0508     0.6274     2.4737    81.2800     0.5461     0.4264
  256    5.100   2970.27     0.5907     0.0126     0.3094     0.0510     0.7166     2.1440    81.6000     0.6350     0.3919
  257    5.120   2971.22     0.6055     0.0136     0.3367     0.0512     0.7432     2.2561    81.9200     0.6613     0.4185
  258    5.140   2972.31     0.6664     0.0142     0.3489     0.0514     0.8132     2.2320    82.2400     0.7309     0.4079
  259    5.160   2973.34     0.7046     0.0144     0.3556     0.0516     0.8529     2.0831    82.5600     0.7704     0.3913
  260    5.180   2974.34     0.7094     0.0146     0.3700     0.0518     0.8613     2.0622    82.8800     0.7785     0.3981
  261    5.200   2975.32     0.7066     0.0151     0.4016     0.0520     0.8706     2.1330    83.2000     0.7874     0.4301
  262    5.220   2976.26     0.6997     0.0150     0.4193     0.0522     0.8753     2.1930    83.5200     0.7918     0.4621
  263    5.240   2977.40     0.7238     0.0162     0.4191     0.0524     0.9007     2.2377    83.8400     0.8168     0.4516
  264    5.260   2978.44     0.7280     0.0167     0.4261     0.0526     0.9063     2.3007    84.1600     0.8221     0.4523
  265    5.280   2979.35     0.7120     0.0161     0.4293     0.0528     0.8901     2.2540    84.4800     0.8057     0.4608
  266    5.300   2980.29     0.7006     0.0159     0.4466     0.0530     0.8865     2.2733    84.8000     0.8017     0.4860
  267    5.320   2981.29     0.6975     0.0160     0.4517     0.0532     0.8866     2.2784    85.1200     0.8015     0.4955
  268    5.340   2982.49     0.6965     0.0164     0.4794     0.0534     0.8913     2.3815    85.4400     0.8059     0.5095
  269    5.360   2983.57     0.6953     0.0172     0.4980     0.0536     0.9032     2.4789    85.7600     0.8174     0.5400
  270    5.380   2984.40     0.7239     0.0180     0.4961     0.0538     0.9327     2.4872    86.0800     0.8466     0.5238
  271    5.400   2985.38     0.7818     0.0174     0.4832     0.0540     0.9883     2.2936    86.4000     0.9019     0.4855
  272    5.420   2986.34     0.8006     0.0169     0.4497     0.0542     0.9956     2.1110    86.7200     0.9089     0.4512
  273    5.440   2987.54     0.7992     0.0159     0.4291     0.0544     0.9820     1.9898    87.0400     0.8949     0.4253
  274    5.460   2988.61     0.7679     0.0150     0.4236     0.0546     0.9426     1.9542    87.3600     0.8552     0.4224
  275    5.480   2989.50     0.7463     0.0161     0.4352     0.0548     0.9257     2.1106    87.6800     0.8380     0.4445
  276    5.500   2990.44     0.6847     0.0170     0.4379     0.0550     0.8687     2.4150    88.0000     0.7807     0.4906
  277    5.520   2991.57     0.6532     0.0172     0.4529     0.0552     0.8414     2.6340    88.3200     0.7531     0.5220
  278    5.540   2992.55     0.6322     0.0170     0.4615     0.0554     0.8250     2.6906    88.6400     0.7363     0.5481
  279    5.560   2993.63     0.6376     0.0152     0.4815     0.0556     0.8323     2.3873    88.9600     0.7434     0.5490
  280    5.580   2994.66     0.6411     0.0144     0.5077     0.0558     0.8511     2.2493    89.2800     0.7619     0.5830
  281    5.600   2995.64     0.6558     0.0153     0.5207     0.0560     0.8733     2.3645    89.6000     0.7837     0.5892
  282    5.620   2996.65     0.7125     0.0163     0.5133     0.0562     0.9308     2.3811    89.9200     0.8409     0.5515
  283    5.640   2997.59     0.7848     0.0165     0.4771     0.0564     0.9924     2.1997    90.2400     0.9022     0.4853
  284    5.660   2998.59     0.8436     0.0158     0.4484     0.0566     1.0304     1.8853    90.5600     0.9399     0.4132
  285    5.680   2999.72     0.9160     0.0160     0.4137     0.0568     1.0948     1.7546    90.8800     1.0040     0.3675
  286    5.700   3000.77     0.8929     0.0165     0.4076     0.0570     1.0639     1.8403    91.2000     0.9727     0.3600
  287    5.720   3001.88     0.8305     0.0170     0.4591     0.0572     1.0162     1.9629    91.5200     0.9246     0.4166
  288    5.740   3002.75     0.7813     0.0172     0.4875     0.0574     0.9822     2.1659    91.8400     0.8904     0.4729
  289    5.760   3003.71     0.7721     0.0173     0.5039     0.0576     0.9827     2.2624    92.1600     0.8905     0.4984
  290    5.780   3004.67     0.7853     0.0170     0.5108     0.0578     0.9988     2.1729    92.4800     0.9063     0.4971
  291    5.800   3005.74     0.7886     0.0171     0.5172     0.0580     1.0051     2.1678    92.8000     0.9123     0.5016
  292    5.820   3006.80     0.7924     0.0172     0.5153     0.0582     1.0103     2.1772    93.1200     0.9172     0.5022
  293    5.840   3007.88     0.7884     0.0169     0.5162     0.0584     1.0039     2.1424    93.4400     0.9105     0.4996
  294    5.860   3008.80     0.7808     0.0169     0.5258     0.0586     1.0015     2.1550    93.7600     0.9077     0.5143
  295    5.880   3009.85     0.7851     0.0173     0.5199     0.0588     1.0036     2.2033    94.0800     0.9095     0.5072
  296    5.900   3010.81     0.7733     0.0169     0.5276     0.0590     0.9940     2.1696    94.4000     0.8996     0.5185
  297    5.920   3011.81     0.7725     0.0164     0.5331     0.0592     0.9960     2.1203    94.7200     0.9013     0.5247
  298    5.940   3012.91     0.7640     0.0159     0.5362     0.0594     0.9887     2.0751    95.0400     0.8936     0.5321
  299    5.960   3013.87     0.7656     0.0154     0.5288     0.0596     0.9887     2.0126    95.3600     0.8934     0.5279
  300    5.980   3014.81     0.7594     0.0160     0.5320     0.0598     0.9824     2.0958    95.6800     0.8867     0.5314
  301    6.000   3021.37     0.7832     0.0171     0.5119     0.0600     1.0023     2.2396    96.0000     0.9063     0.5110
  302    6.020   3040.23     0.8430     0.0178     0.4835     0.0602     1.0502     2.3287    96.3200     0.9539     0.4570
  303    6.040   3056.13     0.8995     0.0200     0.4742     0.0604     1.0974     2.2397    96.6400     1.0008     0.4104
  304    6.060   3057.04     0.9549     0.0193     0.4538     0.0606     1.1483     2.1000    96.9600     1.0513     0.3804
  305    6.080   3058.05     1.0016     0.0151     0.4628     0.0608     1.1909     1.5065    97.2800     1.0936     0.3565
  306    6.100   3059.18     1.0103     0.0198     0.4883     0.0610     1.2130     1.9770    97.6000     1.1154     0.3780
  307    6.120   3060.21     1.1542     0.0224     0.5006     0.0612     1.3608     1.9932    97.9200     1.2628     0.3415
  308    6.140   3061.15     1.6803     0.0218     0.4981     0.0614     1.8922     1.4667    98.2400     1.7940     0.2526
  309    6.160   3062.14     3.2369     0.0342     0.2642     0.0616     3.3951     1.3062    98.5600     3.2965     0.0995
  310    6.180   3064.62     5.8108     0.0355    -0.0248     0.0618     5.7923     0.6679    98.8800     5.6934    -0.0186
  311    6.200   3065.57     7.2500     0.0438    -0.1319     0.0620     7.2011     0.6127    99.2000     7.1019    -0.0251
  312    6.220   3066.65     7.9655     0.0510    -0.1351     0.0622     7.9130     0.6411    99.5200     7.8134    -0.0240
  313    6.240   3067.74     8.2137     0.0589    -0.1276     0.0624     8.1578     0.7192    99.8400     8.0579    -0.0243
  314    6.260   3068.86     8.3460     0.0647    -0.0868     0.0626     8.2967     0.7795   100.1600     8.1966    -0.0220
  315    6.280   3071.00     8.4786     0.0686    -0.0543     0.0628     8.4525     0.8748   100.4800     8.3520    -0.0150
  316    6.300   3072.06     8.8505     0.0710    -0.0262     0.0630     8.8345     0.8345   100.8000     8.7337    -0.0116
  317    6.320   3073.16     9.2549     0.0734     0.0069     0.0632     9.2525     0.7955   101.1200     9.1514    -0.0075
  318    6.340   3074.20     9.6976     0.0743    -0.0266     0.0634     9.6933     0.7729   101.4400     9.5919    -0.0077
  319    6.360   3075.16    10.0722     0.0750    -0.0481     0.0636    10.0535     0.7559   101.7600     9.9517    -0.0109
  320    6.380   3076.29    10.3283     0.0765    -0.0448     0.0638    10.3074     0.7452   102.0800    10.2054    -0.0111
  321    6.400   3078.51    10.3708     0.0803    -0.0308     0.0640    10.3559     0.7779   102.4000    10.2535    -0.0097
  322    6.420   3080.74    10.4133     0.0821    -0.0173     0.0642    10.4043     0.7951   102.7200    10.3016    -0.0083
  323    6.440   3082.08    10.4539     0.0887    -0.0470     0.0644    10.4401     0.8498   103.0400    10.3371    -0.0094
  324    6.460   3083.28    10.6359     0.0819    -0.0337     0.0646    10.6197     0.7760   103.3600    10.5164    -0.0098
  325    6.480   3084.42    10.9813     0.0828    -0.0213     0.0648    10.9707     0.7638   103.6800    10.8671    -0.0083
  326    6.500   3085.33    11.3134     0.0846    -0.0102     0.0650    11.3072     0.7587   104.0000    11.2032    -0.0071
  327    6.520   3086.28    11.6142     0.0872     0.0025     0.0652    11.6152     0.7572   104.3200    11.5109    -0.0054
  328    6.540   3088.83    10.2972     0.0884     0.0283     0.0654    10.3122     0.8311   104.6400    10.2075    -0.0029
  329    6.560   3089.94    11.9609     0.0905    -0.0059     0.0656    11.9645     0.7739   104.9600    11.8595    -0.0048
  330    6.580   3090.94    11.9917     0.0977    -0.0099     0.0658    11.9876     0.8146   105.2800    11.8823    -0.0064
  331    6.600   3092.02    11.9247     0.1049    -0.0094     0.0660    11.9208     0.8795   105.6000    11.8152    -0.0064
  332    6.620   3093.00    11.5713     0.1083    -0.0054     0.0662    11.5710     0.9343   105.9200    11.4651    -0.0058
  333    6.640   3094.03    10.8996     0.1112    -0.0042     0.0664    10.8987     0.9839   106.2400    10.7924    -0.0064
  334    6.660   3095.03     9.7643     0.1200     0.0009     0.0666     9.7640     1.1642   106.5600     9.6575    -0.0070
  335    6.680   3096.15     7.9670     0.1282     0.0017     0.0668     7.9678     1.5790   106.8800     7.8609    -0.0083
  336    6.700   3097.14     6.1848     0.1341     0.0081     0.0670     6.1859     2.1517   107.2000     6.0787    -0.0106
  337    6.720   3098.09     4.7491     0.1305     0.0135     0.0672     4.7528     2.3810   107.5200     4.6452    -0.0126
  338    6.740   3099.10     3.7041     0.1161     0.0450     0.0674     3.7165     2.8193   107.8400     3.6087    -0.0104
  339    6.760   3100.19     2.9445     0.1006     0.0884     0.0676     2.9854     3.1017   108.1600     2.8773     0.0103
  340    6.780   3101.23     2.3724     0.0880     0.0818     0.0678     2.4058     3.3635   108.4800     2.2973     0.0051
  341    6.800   3102.20     1.9371     0.0759     0.1243     0.0680     1.9830     3.8627   108.8000     1.8742     0.0224
  342    6.820   3103.17     1.5798     0.0572     0.1966     0.0682     1.6497     3.2861   109.1200     1.5406     0.0644
  343    6.840   3104.19     1.3967     0.0420     0.4088     0.0684     1.5403     2.8976   109.4400     1.4309     0.1910
  344    6.860   3105.29     1.3404     0.0309     0.4864     0.0686     1.5391     2.2727   109.7600     1.4293     0.2829
  345    6.880   3106.36     1.3177     0.0274     0.5531     0.0688     1.5455     2.0790   110.0800     1.4354     0.3298
  346    6.900   3107.28     1.3068     0.0257     0.5737     0.0690     1.5440     1.9584   110.4000     1.4336     0.3459
  347    6.920   3108.27     1.2995     0.0263     0.5515     0.0692     1.5367     2.0300   110.7200     1.4260     0.3475
  348    6.940   3109.34     1.2962     0.0280     0.5486     0.0694     1.5242     2.1644   111.0400     1.4131     0.3351
  349    6.960   3110.36     1.2837     0.0298     0.5383     0.0696     1.5150     2.3111   111.3600     1.4037     0.3428
  350    6.980   3111.37     1.2451     0.0306     0.5219     0.0698     1.4624     2.4321   111.6800     1.3507     0.3313
  351    7.000   3112.45     1.1875     0.0303     0.5422     0.0700     1.4128     2.5292   112.0000     1.3008     0.3586
  352    7.020   3113.42     1.1803     0.0290     0.5561     0.0702     1.4143     2.4584   112.3200     1.3020     0.3739
  353    7.040   3114.32     1.1468     0.0290     0.5491     0.0704     1.3787     2.4660   112.6400     1.2661     0.3806
  354    7.060   3115.32     1.0941     0.0292     0.5120     0.0706     1.3136     2.6411   112.9600     1.2006     0.3763
  355    7.080   3116.26     1.0668     0.0299     0.5256     0.0708     1.2836     2.7585   113.2800     1.1703     0.3806
  356    7.100   3117.38     0.9891     0.0296     0.5370     0.0710     1.2146     2.8834   113.6000     1.1010     0.4233
  357    7.120   3118.45     0.9509     0.0278     0.5502     0.0712     1.1808     2.9161   113.9200     1.0669     0.4463
  358    7.140   3119.55     0.9193     0.0257     0.5470     0.0714     1.1475     2.7786   114.2400     1.0332     0.4568
  359    7.160   3120.56     0.8683     0.0250     0.5798     0.0716     1.1071     2.8132   114.5600     0.9925     0.5007
  360    7.180   3121.53     0.8320     0.0260     0.6059     0.0718     1.0827     3.0582   114.8800     0.9678     0.5425
  361    7.200   3122.49     0.8345     0.0268     0.6315     0.0720     1.0962     3.2504   115.2000     0.9810     0.5618
  362    7.220   3123.43     0.8921     0.0289     0.6500     0.0722     1.1621     3.3395   115.5200     1.0466     0.5453
  363    7.240   3124.41     1.0127     0.0302     0.6475     0.0724     1.2873     3.1332   115.8400     1.1714     0.4964
  364    7.260   3125.64     1.1334     0.0320     0.6531     0.0726     1.4049     2.9101   116.1600     1.2887     0.4451
  365    7.280   3126.72     1.1403     0.0341     0.6658     0.0728     1.4184     2.9954   116.4800     1.3019     0.4527
  366    7.300   3127.65     1.1487     0.0351     0.6630     0.0730     1.4267     3.0631   116.8000     1.3099     0.4496
  367    7.320   3128.65     1.1406     0.0348     0.6768     0.0732     1.4233     3.0369   117.1200     1.3062     0.4593
  368    7.340   3129.64     1.1356     0.0339     0.6815     0.0734     1.4218     2.9794   117.4400     1.3043     0.4661
  369    7.360   3130.73     1.1356     0.0340     0.6897     0.0736     1.4245     2.9899   117.7600     1.3067     0.4701
  370    7.380   3131.73     1.1266     0.0343     0.7013     0.0738     1.4198     3.0444   118.0800     1.3018     0.4796
  371    7.400   3132.70     1.1180     0.0340     0.7039     0.0740     1.4126     3.0394   118.4000     1.2942     0.4848
  372    7.420   3133.81     1.1087     0.0355     0.7026     0.0742     1.4042     3.2002   118.7200     1.2855     0.4896
  373    7.440   3134.90     1.1192     0.0363     0.7095     0.0744     1.4164     3.2491   119.0400     1.2973     0.4881
  374    7.460   3135.82     1.1297     0.0364     0.7127     0.0746     1.4282     3.2227   119.3600     1.3088     0.4860
  375    7.480   3136.71     1.1218     0.0362     0.7161     0.0748     1.4234     3.2122   119.6800     1.3037     0.4934
  376    7.500   3137.75     1.1319     0.0351     0.6836     0.0750     1.4214     3.1124   120.0000     1.3014     0.4720
  377    7.520   3138.85     1.1067     0.0349     0.7015     0.0752     1.3993     3.1144   120.3200     1.2790     0.4859
  378    7.540   3139.88     1.0810     0.0347     0.6992     0.0754     1.3765     3.1892   120.6400     1.2558     0.5002
  379    7.560   3140.85     1.0618     0.0332     0.6916     0.0756     1.3527     3.1150   120.9600     1.2317     0.5009
  380    7.580   3141.78     1.0344     0.0316     0.6705     0.0758     1.3198     3.0292   121.2800     1.1986     0.5038
  381    7.600   3142.88     1.0136     0.0318     0.6691     0.0760     1.2974     3.0974   121.6000     1.1758     0.5100
  382    7.620   3144.04     1.0321     0.0322     0.6648     0.0762     1.3110     3.1259   121.9200     1.1891     0.4945
  383    7.640   3145.03     1.0155     0.0317     0.6583     0.0764     1.2929     3.1131   122.2400     1.1706     0.4989
  384    7.660   3146.01     0.9932     0.0320     0.6486     0.0766     1.2665     3.2221   122.5600     1.1439     0.5019
  385    7.680   3146.97     0.9899     0.0319     0.6265     0.0768     1.2551     3.2191   122.8800     1.1322     0.4899
  386    7.700   3147.96     0.9685     0.0319     0.6238     0.0770     1.2322     3.2644   123.2000     1.1090     0.4966
  387    7.720   3149.04     0.9477     0.0336     0.6277     0.0772     1.2105     3.5156   123.5200     1.0870     0.5047
  388    7.740   3150.03     0.9119     0.0345     0.6311     0.0774     1.1768     3.7719   123.8400     1.0530     0.5256
  389    7.760   3151.08     0.8801     0.0343     0.6255     0.0776     1.1414     3.8332   124.1600     1.0173     0.5353
  390    7.780   3152.16     0.8410     0.0332     0.6240     0.0778     1.1030     3.9351   124.4800     0.9785     0.5581
  391    7.800   3153.14     0.8521     0.0327     0.6153     0.0780     1.1078     3.9425   124.8000     0.9830     0.5401
  392    7.820   3154.14     0.9111     0.0323     0.6473     0.0782     1.1766     3.5829   125.1200     1.0515     0.5268
  393    7.840   3155.07     0.9497     0.0320     0.7214     0.0784     1.2425     3.4355   125.4400     1.1171     0.5539
  394    7.860   3156.13     0.9991     0.0320     0.7522     0.0786     1.3114     3.2444   125.7600     1.1857     0.5608
  395    7.880   3157.25     1.0208     0.0315     0.7469     0.0788     1.3361     3.0893   126.0800     1.2100     0.5554
  396    7.900   3158.25     1.0377     0.0316     0.7618     0.0790     1.3543     3.0493   126.4000     1.2279     0.5496
  397    7.920   3159.21     1.0394     0.0323     0.7735     0.0792     1.3653     3.1096   126.7200     1.2386     0.5626
  398    7.940   3166.24     1.0476     0.0322     0.7592     0.0794     1.3699     3.0797   127.0400     1.2428     0.5535
  399    7.960   3192.18     1.0616     0.0317     0.7358     0.0796     1.3740     3.0361   127.3600     1.2466     0.5329
  400    7.980   3213.23     1.0726     0.0315     0.7535     0.0798     1.3822     2.9687   127.6800     1.2545     0.5239
  401    8.000   3214.27     1.0830     0.0326     0.7731     0.0800     1.4058     3.0346   128.0000     1.2778     0.5390
  402    8.020   3215.28     1.0820     0.0331     0.7893     0.0802     1.4110     3.0564   128.3200     1.2827     0.5482
  403    8.040   3216.32     1.0809     0.0326     0.7885     0.0804     1.4127     3.0191   128.6400     1.2841     0.5527
  404    8.060   3217.39     1.0914     0.0318     0.7883     0.0806     1.4216     2.9148   128.9600     1.2926     0.5459
  405    8.080   3218.41     1.1006     0.0309     0.8050     0.0808     1.4360     2.8114   129.2800     1.3067     0.5493
  406    8.100   3219.40     1.0985     0.0307     0.8258     0.0810     1.4432     2.7874   129.6000     1.3136     0.5630
  407    8.120   3220.36     1.0839     0.0305     0.8397     0.0812     1.4341     2.7966   129.9200     1.3042     0.5771
  408    8.140   3221.33     1.0747     0.0299     0.8451     0.0814     1.4293     2.7763   130.2400     1.2991     0.5873
  409    8.160   3222.36     1.0755     0.0289     0.8502     0.0816     1.4327     2.6952   130.5600     1.3021     0.5904
  410    8.180   3223.57     1.0612     0.0288     0.8392     0.0818     1.4151     2.7089   130.8800     1.2843     0.5925
  411    8.200   3224.54     1.0516     0.0289     0.8362     0.0820     1.4020     2.7428   131.2000     1.2708     0.5919
  412    8.220   3225.56     1.0736     0.0273     0.8390     0.0822     1.4263     2.5659   131.5200     1.2947     0.5850
  413    8.240   3226.52     1.0704     0.0265     0.8247     0.0824     1.4197     2.4730   131.8400     1.2879     0.5819
  414    8.260   3227.59     1.0863     0.0264     0.8095     0.0826     1.4304     2.4324   132.1600     1.2983     0.5675
  415    8.280   3228.59     1.0936     0.0255     0.7996     0.0828     1.4314     2.3129   132.4800     1.2989     0.5556
  416    8.300   3229.59     1.0218     0.0256     0.8393     0.0830     1.3705     2.4207   132.8000     1.2377     0.6036
  417    8.320   3230.62     1.0118     0.0255     0.8448     0.0832     1.3651     2.5224   133.1200     1.2320     0.6152
  418    8.340   3231.61     1.0119     0.0260     0.8411     0.0834     1.3666     2.5671   133.4400     1.2331     0.6171
  419    8.360   3232.57     1.0194     0.0266     0.8370     0.0836     1.3718     2.6221   133.7600     1.2380     0.6101
  420    8.380   3233.68     1.0249     0.0267     0.8221     0.0838     1.3743     2.6053   134.0800     1.2402     0.6032
  421    8.400   3234.73     1.0357     0.0265     0.8113     0.0840     1.3778     2.5606   134.4000     1.2434     0.5876
  422    8.420   3235.73     1.0274     0.0266     0.8079     0.0842     1.3678     2.5891   134.7200     1.2331     0.5891
  423    8.440   3236.73     1.0177     0.0261     0.8083     0.0844     1.3583     2.5511   135.0400     1.2232     0.5939
  424    8.460   3237.72     1.0134     0.0262     0.8144     0.0846     1.3511     2.5884   135.3600     1.2158     0.5918
  425    8.480   3238.79     0.9942     0.0257     0.8338     0.0848     1.3423     2.5708   135.6800     1.2066     0.6166
  426    8.500   3239.77     0.9898     0.0242     0.8377     0.0850     1.3415     2.4459   136.0000     1.2055     0.6241
  427    8.520   3240.79     0.9880     0.0223     0.8377     0.0852     1.3401     2.2543   136.3200     1.2038     0.6256
  428    8.540   3241.81     0.9797     0.0210     0.8335     0.0854     1.3315     2.1383   136.6400     1.1949     0.6297
  429    8.560   3242.86     0.9787     0.0201     0.8321     0.0856     1.3274     2.0479   136.9600     1.1904     0.6254
  430    8.580   3243.78     0.9864     0.0176     0.8360     0.0858     1.3375     1.8025   137.2800     1.2002     0.6251
  431    8.600   3244.87     1.0069     0.0149     0.8133     0.0860     1.3539     1.4847   137.6000     1.2163     0.6086
  432    8.620   3245.89     1.0172     0.0119     0.7627     0.0862     1.3450     1.1760   137.9200     1.2070     0.5750
  433    8.640   3246.95     0.9471     0.0111     0.7144     0.0864     1.2570     1.1634   138.2400     1.1188     0.5825
  434    8.660   3248.06     0.8684     0.0106     0.6903     0.0866     1.1638     1.2073   138.5600     1.0252     0.6016
  435    8.680   3249.06     0.8112     0.0125     0.6209     0.0868     1.0853     1.5232   138.8800     0.9464     0.5977
  436    8.700   3250.00     0.7420     0.0144     0.5339     0.0870     0.9767     1.8595   139.2000     0.8375     0.5634
  437    8.720   3250.99     0.7306     0.0155     0.4583     0.0872     0.9338     2.1316   139.5200     0.7942     0.4992
  438    8.740   3252.02     0.7201     0.0181     0.4542     0.0874     0.9034     2.4988   139.8400     0.7636     0.4575
  439    8.760   3252.97     0.5717     0.0218     0.4006     0.0876     0.7493     3.6826   140.1600     0.6092     0.5506
  440    8.780   3253.98     0.7175     0.0241     0.4182     0.0878     0.8848     3.8043   140.4800     0.7443     0.4175
  441    8.800   3255.12     0.8566     0.0253     0.4456     0.0880     1.0386     3.0000   140.8000     0.8978     0.3848
  442    8.820   3256.06     0.9365     0.0238     0.3500     0.0882     1.1011     2.5718   141.1200     0.9600     0.3169
  443    8.840   3257.08     1.0478     0.0229     0.3941     0.0884     1.2007     2.1836   141.4400     1.0593     0.2601
  444    8.860   3258.05     1.0372     0.0240     0.5139     0.0886     1.2388     2.3090   141.7600     1.0971     0.3567
  445    8.880   3258.98     1.0371     0.0242     0.6013     0.0888     1.2757     2.3408   142.0800     1.1336     0.4227
  446    8.900   3260.10     1.0767     0.0245     0.6686     0.0890     1.3486     2.3240   142.4000     1.2062     0.4630
  447    8.920   3261.25     1.1321     0.0246     0.6716     0.0892     1.4162     2.2031   142.7200     1.2735     0.4614
  448    8.940   3262.14     1.1151     0.0250     0.6008     0.0894     1.3917     2.1933   143.0400     1.2487     0.4555
  449    8.960   3263.15     1.0649     0.0248     0.7025     0.0896     1.3498     2.3193   143.3600     1.2065     0.4881
  450    8.980   3264.15     1.0497     0.0253     0.7499     0.0898     1.3588     2.4126   143.6800     1.2151     0.5317
  451    9.000   3265.19     1.0381     0.0256     0.7787     0.0900     1.3621     2.4666   144.0000     1.2181     0.5595
  452    9.020   3266.20     1.0356     0.0258     0.7950     0.0902     1.3661     2.4916   144.3200     1.2218     0.5702
  453    9.040   3267.29     1.0262     0.0263     0.8185     0.0904     1.3669     2.5544   144.6400     1.2223     0.5897
  454    9.060   3268.24     1.0407     0.0270     0.8251     0.0906     1.3865     2.6119   144.9600     1.2416     0.5902
  455    9.080   3269.22     1.0544     0.0276     0.8368     0.0908     1.4044     2.6274   145.2800     1.2592     0.5898
  456    9.100   3270.20     1.0667     0.0276     0.8259     0.0910     1.4171     2.5852   145.6000     1.2715     0.5845
  457    9.120   3271.20     1.0755     0.0278     0.8296     0.0912     1.4231     2.5954   145.9200     1.2771     0.5765
  458    9.140   3272.36     1.0552     0.0283     0.8358     0.0914     1.4057     2.6843   146.2400     1.2595     0.5901
  459    9.160   3273.41     1.0376     0.0284     0.8458     0.0916     1.3906     2.7311   146.5600     1.2441     0.6021
  460    9.180   3274.35     1.0191     0.0285     0.8695     0.0918     1.3811     2.7941   146.8800     1.2342     0.6240
  461    9.200   3275.27     1.0151     0.0284     0.8806     0.0920     1.3835     2.7931   147.2000     1.2363     0.6351
  462    9.220   3276.26     1.0098     0.0281     0.8934     0.0922     1.3831     2.7797   147.5200     1.2355     0.6446
  463    9.240   3277.30     1.0134     0.0274     0.8966     0.0924     1.3906     2.7153   147.8400     1.2427     0.6482
  464    9.260   3278.43     1.0366     0.0265     0.9004     0.0926     1.4113     2.5571   148.1600     1.2631     0.6329
  465    9.280   3279.42     1.0272     0.0265     0.9235     0.0928     1.4131     2.5731   148.4800     1.2647     0.6532
  466    9.300   3280.36     1.0272     0.0277     0.9311     0.0930     1.4167     2.7034   148.8000     1.2679     0.6580
  467    9.320   3281.42     1.0227     0.0280     0.9336     0.0932     1.4163     2.7315   149.1200     1.2671     0.6659
  468    9.340   3282.47     1.0272     0.0273     0.9310     0.0934     1.4185     2.6702   149.4400     1.2690     0.6605
  469    9.360   3283.50     1.0365     0.0272     0.9205     0.0936     1.4265     2.6237   149.7600     1.2767     0.6540
  470    9.380   3284.57     1.0608     0.0276     0.9085     0.0938     1.4429     2.6098   150.0800     1.2928     0.6311
  471    9.400   3285.53     1.0496     0.0275     0.9085     0.0940     1.4335     2.5888   150.4000     1.2831     0.6392
  472    9.420   3286.62     1.0358     0.0269     0.9081     0.0942     1.4178     2.5812   150.7200     1.2671     0.6436
  473    9.440   3287.57     1.0294     0.0269     0.9014     0.0944     1.4068     2.6212   151.0400     1.2557     0.6404
  474    9.460   3288.58     1.0242     0.0258     0.9101     0.0946     1.4035     2.5081   151.3600     1.2522     0.6457
  475    9.480   3289.56     1.0050     0.0250     0.9207     0.0948     1.3915     2.4832   151.6800     1.2398     0.6658
  476    9.500   3290.64     0.9986     0.0244     0.9014     0.0950     1.3815     2.4497   152.0000     1.2295     0.6642
  477    9.520   3291.66     0.9887     0.0240     0.8817     0.0952     1.3631     2.3927   152.3200     1.2108     0.6577
  478    9.540   3292.76     0.9799     0.0233     0.8723     0.0954     1.3471     2.3752   152.6400     1.1944     0.6520
  479    9.560   3293.69     0.9775     0.0235     0.8491     0.0956     1.3371     2.4038   152.9600     1.1842     0.6424
  480    9.580   3294.68     0.9621     0.0225     0.8267     0.0958     1.3138     2.3206   153.2800     1.1605     0.6389
  481    9.600   3295.59     0.9469     0.0223     0.8099     0.0960     1.2911     2.3453   153.6000     1.1375     0.6360
  482    9.620   3296.68     0.9229     0.0231     0.7941     0.0962     1.2579     2.4760   153.9200     1.1040     0.6355
  483    9.640   3297.80     0.9221     0.0222     0.7773     0.0964     1.2516     2.4103   154.2400     1.0974     0.6272
  484    9.660   3298.81     0.9044     0.0212     0.7722     0.0966     1.2292     2.3362   154.5600     1.0747     0.6297
  485    9.680   3299.89     0.8895     0.0207     0.7514     0.0968     1.2099     2.3185   154.8800     1.0550     0.6314
  486    9.700   3300.79     0.8751     0.0196     0.7364     0.0970     1.1848     2.2295   155.2000     1.0296     0.6220
  487    9.720   3301.83     0.8552     0.0191     0.7360     0.0972     1.1645     2.2147   155.5200     1.0090     0.6335
  488    9.740   3302.83     0.8536     0.0192     0.7313     0.0974     1.1614     2.2542   155.8400     1.0056     0.6319
  489    9.760   3303.86     0.8694     0.0199     0.7236     0.0976     1.1748     2.3083   156.1600     1.0187     0.6181
  490    9.780   3304.85     0.9081     0.0202     0.7030     0.0978     1.2074     2.2755   156.4800     1.0509     0.5851
  491    9.800   3305.92     0.9801     0.0194     0.6759     0.0980     1.2679     2.0337   156.8000     1.1111     0.5285
  492    9.820   3306.95     1.0472     0.0184     0.6485     0.0982     1.3226     1.7722   157.1200     1.1655     0.4784
  493    9.840   3307.99     1.0647     0.0176     0.6272     0.0984     1.3325     1.6540   157.4400     1.1751     0.4590
  494    9.860   3309.02     1.0482     0.0167     0.6348     0.0986     1.3105     1.5947   157.7600     1.1527     0.4562
  495    9.880   3310.05     0.9771     0.0143     0.6564     0.0988     1.2490     1.4175   158.0800     1.0909     0.5029
  496    9.900   3311.06     0.9314     0.0118     0.6804     0.0990     1.2134     1.2364   158.4000     1.0550     0.5426
  497    9.920   3312.11     0.9089     0.0120     0.6992     0.0992     1.2004     1.3162   158.7200     1.0417     0.5711
  498    9.940   3313.04     0.9349     0.0203     0.7120     0.0994     1.2328     2.1815   159.0400     1.0738     0.5680
  499    9.960   3314.10     1.0630     0.0363     0.7171     0.0996     1.3631     3.5275   159.3600     1.2037     0.5116
  500    9.980   3324.27     1.5042     0.0414     0.6010     0.0998     1.7748     3.6076   159.6800     1.6151     0.3942
  501   10.000   3340.99     2.1136     0.0410     0.4754     0.1000     2.3315     3.5724   160.0000     2.1715     0.2492
  502   10.020   3357.04     2.6862     0.0423     0.3356     0.1002     2.8507     1.7471   160.3200     2.6904     0.1082
  503   10.040   3357.98     2.4211     0.0514     0.2215     0.1004     2.5177     2.0159   160.6400     2.3571     0.0548
  504   10.060   3359.00     1.9880     0.0431     0.3032     0.1006     2.0975     1.9867   160.9600     1.9365     0.0827
  505   10.080   3360.04     1.6289     0.0485     0.3973     0.1008     1.7787     2.7415   161.2800     1.6174     0.1582
  506   10.100   3360.98     1.5997     0.0477     0.4671     0.1010     1.7900     2.9996   161.6000     1.6284     0.2163
  507   10.120   3362.09     1.9830     0.0451     0.4383     0.1012     2.1739     2.5023   161.9200     2.0119     0.1757
  508   10.140   3363.07     2.2463     0.0331     0.3460     0.1014     2.4162     1.5354   162.2400     2.2540     0.1345
  509   10.160   3364.17     2.1384     0.0271     0.1301     0.1016     2.1959     1.2589   162.5600     2.0334     0.0174
  510   10.180   3365.16     1.7624     0.0226     0.1943     0.1018     1.8294     1.2699   162.8800     1.6665     0.0353
  511   10.200   3366.11     1.5901     0.0273     0.3125     0.1020     1.7077     1.6611   163.2000     1.5445     0.1152
  512   10.220   3367.10     1.5262     0.0215     0.3724     0.1022     1.6744     1.3836   163.5200     1.5109     0.1660
  513   10.240   3368.19     1.3915     0.0272     0.4261     0.1024     1.5607     1.9026   163.8400     1.3969     0.2155
  514   10.260   3369.27     1.2425     0.0504     0.4939     0.1026     1.4404     1.8591   164.1600     1.2762     0.2889
  515   10.280   3370.24     1.2505     0.0739     0.5604     0.1028     1.4763     1.7186   164.4800     1.3119     0.3315
  516   10.300   3371.24     2.0948     0.0974     0.5875     0.1030     2.3417     1.5781   164.8000     2.1769     0.2477
  517   10.320   3372.32     5.4076     0.1209     0.5038     0.1032     5.6448     1.4376   165.1200     5.4797     0.0865
  518   10.340   3373.44    11.8862     0.1444     0.2098     0.1034    12.0559     1.2972   165.4400    11.8904     0.0257
  519   10.360   3375.42    18.5068     0.1532     0.0560     0.1036    18.5441     0.9351   165.7600    18.3783     0.0008
  520   10.380   3377.95    22.3744     0.1950    -0.0391     0.1038    22.3717     1.1908   166.0800    22.2056    -0.0021
  521   10.400   3380.48    26.2418     0.2208    -0.1342     0.1040    26.1992     1.3481   166.4000    26.0328    -0.0049
  522   10.420   3383.00    30.1093     0.2707    -0.2293     0.1042    30.0268     1.6529   166.7200    29.8601    -0.0078
  523   10.440   3385.53    33.9767     0.2609    -0.3244     0.1044    33.8543     1.5928   167.0400    33.6872    -0.0106
  524   10.460   3387.72    36.5494     0.2540    -0.3646     0.1046    36.3960     0.7213   167.3600    36.2286    -0.0130
  525   10.480   3388.76    34.9021     0.2348    -0.3626     0.1048    34.7493     0.6648   167.6800    34.5816    -0.0136
  526   10.500   3389.77    30.7159     0.2662    -0.3625     0.1050    30.5637     0.8209   168.0000    30.3957    -0.0154
  527   10.520   3390.73    25.8681     0.3620    -0.3641     0.1052    25.7159     1.3287   168.3200    25.5476    -0.0184
  528   10.540   3391.63    21.7456     0.3604    -0.3840     0.1054    21.5898     1.6028   168.6400    21.4211    -0.0222
  529   10.560   3392.61    21.8639     0.3218    -0.3794     0.1056    21.7036     1.4810   168.9600    21.5347    -0.0226
  530   10.580   3393.57    20.5610     0.2695    -0.3765     0.1058    20.4023     1.2534   169.2800    20.2330    -0.0240
  531   10.600   3394.57    17.9069     0.2257    -0.3767     0.1060    17.7488     1.2404   169.6000    17.5792    -0.0275
  532   10.620   3395.55    14.4641     0.1942    -0.3756     0.1062    14.3062     1.2531   169.9200    14.1363    -0.0341
  533   10.640   3397.85    12.6549     0.1426    -0.3740     0.1064    12.4977     1.1811   170.2400    12.3274    -0.0391
  534   10.660   3399.05    12.0625     0.0829    -0.3730     0.1066    11.9057     0.6805   170.5600    11.7351    -0.0409
  535   10.680   3399.96    11.1852     0.0760    -0.3724     0.1068    11.0287     0.6776   170.8800    10.8578    -0.0442
  536   10.700   3400.97     9.8695     0.0847    -0.3720     0.1070     9.7131     0.8066   171.2000     9.5419    -0.0502
  537   10.720   3401.86     8.2884     0.1094    -0.3716     0.1072     8.1322     1.2385   171.5200     7.9607    -0.0603
  538   10.740   3403.06     7.0939     0.1072    -0.3711     0.1074     6.9380     1.4451   171.8400     6.7661    -0.0708
  539   10.760   3404.10     6.3913     0.1149    -0.3707     0.1076     6.2355     1.7324   172.1600     6.0634    -0.0789
  540   10.780   3405.11     6.0140     0.1214    -0.3703     0.1078     5.8584     1.9882   172.4800     5.6859    -0.0841
  541   10.800   3406.04     6.0032     0.1181    -0.3699     0.1080     5.8477     1.9746   172.8000     5.6749    -0.0842
  542   10.820   3407.12     6.4411     0.0985    -0.3696     0.1082     6.2859     1.5610   173.1200     6.1127    -0.0782
  543   10.840   3408.30     7.4818     0.0746    -0.3692     0.1084     7.3267     1.0685   173.4400     7.1533    -0.0669
  544   10.860   3409.31     9.0299     0.0558    -0.3688     0.1086     8.8750     0.6738   173.7600     8.7012    -0.0550
  545   10.880   3410.34    10.9560     0.0493    -0.3684     0.1088    10.8012     0.4932   174.0800    10.6271    -0.0450
  546   10.900   3411.43    13.1109     0.0443    -0.3682     0.1090    12.9562     0.3624   174.4000    12.7818    -0.0374
  547   10.920   3412.45    15.0518     0.0404    -0.3678     0.1092    14.8973     0.2802   174.7200    14.7225    -0.0324
  548   10.940   3413.46    16.0806     0.0346    -0.3676     0.1094    15.9262     0.2198   175.0400    15.7512    -0.0303
  549   10.960   3414.48    16.3843     0.0254    -0.3674     0.1096    16.2300     0.1551   175.3600    16.0546    -0.0297
  550   10.980   3415.47    16.1273     0.0200    -0.3672     0.1098    15.9731     0.1240   175.6800    15.7974    -0.0302
  551   11.000   3416.59    15.5568     0.0228    -0.3670     0.1100    15.4026     0.1465   176.0000    15.2266    -0.0313
  552   11.020   3417.60    14.6299     0.0349    -0.3668     0.1102    14.4758     0.2364   176.3200    14.2995    -0.0334
  553   11.040   3418.65    13.4227     0.0469    -0.3666     0.1104    13.2687     0.3349   176.6400    13.0920    -0.0365
  554   11.060   3419.61    12.0097     0.0572    -0.3665     0.1106    11.8558     0.4537   176.9600    11.6788    -0.0409
  555   11.080   3420.56    10.4973     0.0613    -0.3664     0.1108    10.3435     0.5492   177.2800    10.1662    -0.0470
  556   11.100   3421.59     8.9137     0.0591    -0.3662     0.1110     8.7599     0.6197   177.6000     8.5823    -0.0557
  557   11.120   3422.63     7.6978     0.0635    -0.3660     0.1112     7.5440     0.7770   177.9200     7.3661    -0.0649
  558   11.140   3423.77     6.6227     0.0706    -0.3656     0.1114     6.4691     1.0204   178.2400     6.2909    -0.0759
  559   11.160   3424.79     6.0007     0.0734    -0.3654     0.1116     5.8472     1.1797   178.5600     5.6687    -0.0842
  560   11.180   3425.73     5.6773     0.0926    -0.3651     0.1118     5.5239     1.6089   178.8800     5.3451    -0.0892
  561   11.200   3426.65     5.6605     0.1161    -0.3647     0.1120     5.5072     2.0637   179.2000     5.3280    -0.0895
  562   11.220   3427.76     6.1994     0.1442    -0.3644     0.1122     6.0463     2.4063   179.5200     5.8668    -0.0813
  563   11.240   3429.04     7.5926     0.1419    -0.3641     0.1124     7.4397     1.9935   179.8400     7.2598    -0.0656
  564   11.260   3429.99     8.9358     0.0982    -0.3639     0.1126     8.7829     1.1183   180.1600     8.6028    -0.0554
  565   11.280   3431.01    10.6373     0.0625    -0.3638     0.1128    10.4845     0.6242   180.4800    10.3040    -0.0463
  566   11.300   3431.97    12.3295     0.0529    -0.3637     0.1130    12.1767     0.4416   180.8000    11.9959    -0.0398
  567   11.320   3433.05    13.9112     0.0479    -0.3636     0.1132    13.7585     0.3530   181.1200    13.5774    -0.0351
  568   11.340   3434.24    14.9129     0.0471    -0.3635     0.1134    14.7602     0.3200   181.4400    14.5787    -0.0327
  569   11.360   3435.34    15.2672     0.0556    -0.3634     0.1136    15.1145     0.3656   181.7600    14.9328    -0.0319
  570   11.380   3440.21    13.9667     0.0783    -0.3632     0.1138    13.8141     0.5739   182.0800    13.6320    -0.0350
  571   11.400   3445.81    14.6481     0.1005    -0.3630     0.1140    14.4956     0.7369   182.4000    14.3132    -0.0333
  572   11.420   3447.46    14.5069     0.1090    -0.3629     0.1142    14.3544     0.7463   182.7200    14.1717    -0.0337
  573   11.440   3448.44    14.3383     0.0890    -0.3629     0.1144    14.1859     0.6187   183.0400    14.0028    -0.0341
  574   11.460   3449.54    14.5612     0.0676    -0.3629     0.1146    14.4088     0.4708   183.3600    14.2255    -0.0336
  575   11.480   3450.47    15.3275     0.0558    -0.3628     0.1148    15.1752     0.3744   183.6800    14.9915    -0.0319
  576   11.500   3451.54    15.8786     0.0579    -0.3628     0.1150    15.7262     0.3672   184.0000    15.5422    -0.0307
  577   11.520   3452.65    15.6691     0.0799    -0.3628     0.1152    15.5167     0.5056   184.3200    15.3324    -0.0312
  578   11.540   3453.71    15.0118     0.0896    -0.3627     0.1154    14.8594     0.5853   184.6400    14.6748    -0.0326
  579   11.560   3454.70    14.4139     0.0839    -0.3627     0.1156    14.2615     0.5722   184.9600    14.0766    -0.0340
  580   11.580   3455.67    14.0865     0.0704    -0.3625     0.1158    13.9342     0.4955   185.2800    13.7489    -0.0348
  581   11.600   3456.67    14.0767     0.0674    -0.3625     0.1160    13.9244     0.4806   185.6000    13.7388    -0.0348
  582   11.620   3457.86    15.0531     0.0746    -0.3623     0.1162    14.9009     0.5118   185.9200    14.7150    -0.0325
  583   11.640   3458.88    15.9278     0.0848    -0.3621     0.1164    15.7757     0.5409   186.2400    15.5895    -0.0307
  584   11.660   3459.88    16.4401     0.0865    -0.3618     0.1166    16.2881     0.5493   186.5600    16.1015    -0.0297
  585   11.680   3460.84    15.9937     0.0882    -0.3616     0.1168    15.8419     0.5582   186.8800    15.6550    -0.0306
  586   11.700   3461.93    14.7395     0.1022    -0.3616     0.1170    14.5876     0.6840   187.2000    14.4004    -0.0332
  587   11.720   3463.02    12.9404     0.1187    -0.3616     0.1172    12.7885     0.8895   187.5200    12.6010    -0.0380
  588   11.740   3464.06    11.4563     0.1195    -0.3614     0.1174    11.3045     1.0149   187.8400    11.1166    -0.0431
  589   11.760   3466.43    10.6565     0.0973    -0.3606     0.1176    10.5049     0.9843   188.1600    10.3168    -0.0465
  590   11.780   3469.70    10.1342     0.0863    -0.3596     0.1178     9.9831     0.8725   188.4800     9.7946    -0.0489
  591   11.800   3472.33     9.7228     0.0904    -0.3590     0.1180     9.5720     0.9233   188.8000     9.3832    -0.0509
  592   11.820   3473.33     9.2922     0.1064    -0.3580     0.1182     9.1417     1.1385   189.1200     8.9526    -0.0532
  593   11.840   3474.45     8.5536     0.1284    -0.3577     0.1184     8.4034     1.4475   189.4400     8.2140    -0.0580
  594   11.860   3475.51     8.1708     0.1265    -0.3576     0.1186     8.0206     1.5171   189.7600     7.8308    -0.0608
  595   11.880   3476.63     8.0442     0.1050    -0.3572     0.1188     7.8941     1.2759   190.0800     7.7040    -0.0618
  596   11.900   3477.50     8.1887     0.0835    -0.3569     0.1190     8.0388     1.0347   190.4000     7.8484    -0.0606
  597   11.920   3478.52     8.9104     0.0888    -0.3566     0.1192     8.7605     1.0396   190.7200     8.5698    -0.0555
  598   11.940   3479.60    10.0041     0.0874    -0.3562     0.1194     9.8545     0.8814   191.0400     9.6635    -0.0492
  599   11.960   3480.54    11.2598     0.0699    -0.3555     0.1196    11.1102     0.6576   191.3600    10.9189    -0.0436
  600   11.980   3497.01    12.4166     0.0497    -0.3424     0.1198    12.2709     0.4217   191.6800    12.0792    -0.0389
  601   12.000   3520.66    13.3552     0.0381    -0.3293     0.1200    13.2150     0.3235   192.0000    13.0230    -0.0350
  602   12.020   3531.17    14.1648     0.0409    -0.3242     0.1202    14.0277     0.2930   192.3200    13.8354    -0.0323
  603   12.040   3532.15    14.8380     0.0629    -0.3194     0.1204    14.7041     0.4248   192.6400    14.5114    -0.0303
  604   12.060   3533.18    15.6060     0.0761    -0.3176     0.1206    15.4724     0.4926   192.9600    15.2794    -0.0287
  605   12.080   3534.25    16.8434     0.0586    -0.3144     0.1208    16.7111     0.3546   193.2800    16.5178    -0.0264
  606   12.100   3535.25    18.1819     0.0480    -0.3150     0.1210    18.0498     0.2661   193.6000    17.8562    -0.0244
  607   12.120   3536.29    20.4990     0.0517    -0.3166     0.1212    20.3667     0.2575   193.9200    20.1727    -0.0216
  608   12.140   3537.23    22.5526     0.0670    -0.3162     0.1214    22.4191     0.3015   194.2400    22.2248    -0.0198
  609   12.160   3538.22    23.1902     0.0924    -0.3180     0.1216    23.0570     0.3985   194.5600    22.8625    -0.0192
  610   12.180   3539.29    23.4444     0.1223    -0.3203     0.1218    23.3101     0.5224   194.8800    23.1152    -0.0191
  611   12.200   3540.32    23.5450     0.1403    -0.3185     0.1220    23.4109     0.5956   195.2000    23.2157    -0.0190
  612   12.220   3541.22    23.6079     0.1624    -0.3179     0.1222    23.4743     0.6890   195.5200    23.2788    -0.0189
  613   12.240   3542.14    23.6810     0.1910    -0.3123     0.1224    23.5493     0.8066   195.8400    23.3535    -0.0187
  614   12.260   3543.04    23.3926     0.2168    -0.2950     0.1226    23.2640     0.9170   196.1600    23.0678    -0.0186
  615   12.280   3544.27    22.8332     0.2455    -0.3105     0.1228    22.7040     1.0660   196.4800    22.5075    -0.0191
  616   12.300   3545.26    22.3116     0.2720    -0.2959     0.1230    22.1839     1.2093   196.8000    21.9871    -0.0194
  617   12.320   3546.25    21.7440     0.2738    -0.2618     0.1232    21.6318     1.2456   197.1200    21.4346    -0.0182
  618   12.340   3547.25    21.1705     0.2579    -0.2791     0.1234    21.0534     1.2191   197.4400    20.8559    -0.0193
  619   12.360   3548.19    21.6528     0.2410    -0.2723     0.1236    21.5393     1.1195   197.7600    21.3416    -0.0184
  620   12.380   3549.15    22.4257     0.2205    -0.2704     0.1238    22.3117     0.9989   198.0800    22.1137    -0.0179
  621   12.400   3550.15    23.5958     0.1867    -0.2819     0.1240    23.4807     0.8146   198.4000    23.2823    -0.0171
  622   12.420   3551.23    25.4406     0.1544    -0.2680     0.1242    25.3260     0.6101   198.7200    25.1273    -0.0158
  623   12.440   3552.30    26.7403     0.1282    -0.2603     0.1244    26.6312     0.4813   199.0400    26.4322    -0.0145
  624   12.460   3553.22    27.6884     0.1162    -0.2709     0.1246    27.5759     0.4224   199.3600    27.3766    -0.0143
  625   12.480   3554.35    28.4729     0.1214    -0.2675     0.1248    28.3582     0.4274   199.6800    28.1585    -0.0141
  626   12.500   3555.31    28.8659     0.1317    -0.2375     0.1250    28.7619     0.4568   200.0000    28.5619    -0.0130
  627   12.520   3556.28    29.2643     0.1495    -0.2162     0.1252    29.1689     0.5113   200.3200    28.9686    -0.0122
  628   12.540   3557.27    29.7806     0.1802    -0.2154     0.1254    29.6981     0.6095   200.6400    29.4974    -0.0109
  629   12.560   3558.31    30.6405     0.2175    -0.2559     0.1256    30.5371     0.7161   200.9600    30.3361    -0.0123
  630   12.580   3559.30    32.2355     0.2333    -0.2643     0.1258    32.1251     0.7364   201.2800    31.9239    -0.0122
  631   12.600   3560.33    34.5998               -0.2640     0.1260    34.4901              201.6000    34.2885    -0.0113
  632   12.620   3561.36    37.8249               -0.2832     0.1262    37.7073              201.9200    37.5054    -0.0108
  633   12.640   3562.35    41.8030               -0.2883     0.1264    41.6817              202.2400    41.4794    -0.0100
  634   12.660   3563.61    47.1369               -0.2872     0.1266    47.0156              202.5600    46.8131    -0.0089
  635   12.680   3564.82    51.8418               -0.2879     0.1268    51.7168              202.8800    51.5140    -0.0082
  636   12.688   3565.50    54.7180                           0.1269    54.5982              203.0114    54.3952    -0.0076
 
 
